Load(MW)
0.7283
1.3353
4.3548
1.6287
3.9702
0.9772
0.0916
1.6032
1.0184
0.885
0.9329
1.4536
1.2519
0.9813
3.9616
1.602
0.7666
1.1314
4.1274
1.3652
2.3787
1.7064
2.7025
2.9224
3.7787
0.5283
2.1834
0.8264
1.447
1.5766
1.1121
0.9355
2.1298
4.7218
1.7005
0.8189
2.2858
1.1678
1.8345
1.3435
1.0309
1.1742
3.5955
1.6423
2.4528
0.5657
1.11
1.0189
2.7963
3.0141
3.085
2.6882
1.0911
1.0439
1.7494
1.3466
1.3922
1.1295
0.7999
3.0956
2.6238
0.49
1.2434
1.0165
4.4437
1.0901
1.3442
1.1969
0.8711
1.528
1.7962
1.7907
0.9907
1.5917
4.9932
4.6207
1.4754
0.6812
1.4633
1.1317
1.0486
1.4359
3.0823
2.2773
0.589
1.7052
1.462
4.7743
1.296
4.609
1.2742
0.6837
1.5116
0.795
1.5267
3.0507
0.8319
1.2619
1.5728
1.0983
2.3601
1.2398
0.7914
4.667
1.1473
2.8755
2.4799
1.5297
2.3229
0.9824
2.839
1.948
1.6486
1.2218
0.7931
1.7863
2.731
2.7153
1.8098
1.2031
1.2986
1.2747
1.27
3.8472
0.4412
1.3516
3.8306
1.0579
1.4332
3.6616
5.2984
1.9821
1.2064
1.3876
1.0114
3.4835
3.8848
1.9048
1.3348
0.516
1.3601
1.9006
0.89
0.657
4.1238
1.9942
0.6506
1.1554
1.8547
4.8218
1.2248
3.4087
1.1141
1.2258
2.0007
1.7433
1.4914
1.2301
2.4687
1.2881
2.4236
1.0492
1.3536
2.8228
1.4341
2.3945
2.0371
0.6822
1.8588
1.0135
1.2052
2.9388
1.0985
4.6119
2.5401
2.4267
3.2642
1.6519
1.7112
0.6923
0.9034
1.1963
1.0689
1.541
1.4604
1.7761
4.0362
2.6976
1.6898
2.4717
2.4097
4.8383
0.3357
3.1507
1.0717
1.1981
4.7985
1.527
2.1505
2.35
1.2296
2.9562
4.4418
1.2231
1.0167
1.9891
1.1529
1.6142
1.1331
0.6251
0.3885
2.7502
1.5148
1.8265
2.6056
2.5364
2.728
0.7344
2.7214
1.3183
1.1539
2.6116
3.1329
2.7336
2.5262
0.5215
2.1761
1.4272
0.8488
1.0711
1.2487
3.1445
1.6355
1.2705
1.8317
1.5724
0.4657
1.8128
2.6964
0.279
1.6164
2.7397
1.1938
1.5379
1.1974
1.371
1.1479
1.1681
0.7328
1.4069
3.3116
1.0645
0.854
3.98
0.5916
1.1187
1.1567
1.2179
1.5612
0.9368
0.9678
0.679
0.9342
0.27
4.6108
2.3023
0.7875
1.2337
0.8561
0.8162
3.7554
0.9224
1.2926
1.5863
0.8292
1.1986
1.0131
1.8712
1.7922
0.6444
1.2117
1.254
1.0056
0.9344
0.8485
2.4492
3.1107
2.8571
1.3656
2.6018
2.3899
0.974
3.3077
1.8871
0.9605
0.7749
1.0054
1.0699
0.7167
1.3136
1.137
1.0271
3.9608
1.5225
0.8931
2.2326
1.272
1.2379
4.4483
3.1541
0.9478
1.4496
1.4306
1.6391
1.0854
2.9443
0.913
0.2538
0.5296
2.6353
1.5786
1.2406
1.2701
1.4414
1.4161
1.7292
2.4683
1.3713
1.8405
2.7633
1.746
1.0114
1.6089
1.613
0.5075
1.3192
1.2724
1.5545
1.2766
2.3216
5.027
2.8258
1.3062
0.7164
1.278
2.6632
2.2771
1.4223
4.709
3.9694
1.5616
1.8603
1.7389
0.8528
0.7225
1.1368
1.5413
1.1333
0.7684
2.8014
0.861
2.5754
0.9125
1.2633
1.1513
1.2658
5.3793
3.7349
1.7891
0.0717
0.7004
1.2864
2.5803
1.4239
1.0465
1.1705
1.1621
1.2127
1.2419
1.1447
1.0512
1.1028
1.2996
1.3072
0.9212
2.3191
3.4833
3.2153
2.2182
0.8537
1.5209
0.6005
0.4561
2.4493
1.6123
1.1869
2.1144
1.4852
0.6534
1.2428
3.5012
1.4341
1.001
4.4657
1.8875
1.8663
1.1329
1.5422
1.0524
1.2842
0.5534
0.8613
1.4435
0.456
1.2404
1.276
4.5017
3.5506
0.4832
1.6188
1.2763
1.0579
0.539
2.4972
0.7385
1.5943
0.6402
1.104
2.9009
1.4625
1.0075
1.4685
1.5473
4.2899
1.3895
2.5593
3.0045
2.6033
0.6038
1.4126
3.7638
1.7422
4.4145
0.3813
1.5682
1.3201
1.5027
1.2199
3.0357
0.91
1.5902
2.7341
0.4865
0.4539
1.0726
0.8586
0.3796
0.6877
1.1297
2.3562
3.396
0.9183
3.0171
1.8878
0.9804
0.9459
0.9896
2.5742
2.5062
0.7021
1.3458
1.0402
2.2002
1.5979
1.0462
1.4477
2.8103
1.6597
3.448
0.6666
0.8432
1.1965
0.8308
3.0691
0.7198
1.3018
1.3296
2.7645
2.8671
1.6279
1.8498
1.0429
0.8464
1.3774
1.3699
4.5957
2.136
1.5196
0.6271
1.3131
1.0297
3.031
2.1519
1.2745
4.4127
1.046
1.2741
0.9963
2.6724
2.7518
3.9949
4.1714
0.3365
0.4783
2.4952
0.6782
1.1246
1.676
1.756
2.5562
2.2496
0.6793
1.9043
2.9278
1.1124
1.2315
1.1027
2.7977
1.1877
2.8647
2.8696
0.7993
4.3746
3.0443
1.4085
1.3591
0.8787
0.8857
1.1939
0.9308
1.6225
4.1526
0.908
1.6342
2.2673
1.1897
0.9577
2.2191
1.1904
0.8282
1.216
4.1499
0.8895
1.6195
1.4644
1.3169
0.8612
5.0403
2.7487
0.9542
2.9912
4.2812
2.9451
1.3703
2.126
3.7687
0.9754
2.4579
1.159
0.7215
1.4394
4.7179
1.153
0.409
0.8175
2.112
2.0493
0.5072
0.957
2.8067
0.6681
1.3704
2.4026
1.3374
1.0763
1.1335
1.6507
0.7097
1.3354
2.8977
0.6715
0.5399
4.1082
0.3111
2.7143
1.4753
0.6094
1.5594
1.7187
2.7503
3.0607
1.0613
3.9836
1.1445
2.2867
0.9502
1.2039
2.6762
2.7801
0.3087
2.4464
0.8018
1.4733
2.7217
0.9239
2.8115
2.3258
2.6198
2.05
2.4811
2.6524
0.7432
1.4836
0.8726
1.3258
2.9634
1.0929
1.4395
1.3508
1.6442
1.4418
1.7472
1.0891
0.6578
0.5026
0.5412
1.0712
1.272
0.903
0.2458
2.4035
1.0073
1.1915
1.8132
0.4261
1.4885
1.4442
2.5462
2.76
4.1455
1.4346
0.8306
0.7824
1.9958
1.3684
0.944
0.5268
0.7888
1.4338
1.2681
0.8024
3.0935
1.1681
4.4411
1.2591
2.5358
1.3702
1.6877
2.5302
1.517
0.9027
3.2335
0.8486
2.143
0.6748
1.0498
1.3924
4.7777
1.8887
1.8192
0.485
2.7675
0.8723
1.6142
2.9962
1.3284
0.9734
0.733
0.8982
3.8905
2.6411
1.6374
1.2461
0.7025
0.6767
2.8605
2.0258
1.2409
2.4042
0.7797
1.467
1.8718
1.0698
0.9735
0.603
2.6542
2.8887
0.8822
1.2956
1.4137
1.4471
3.7512
0.8225
4.269
1.5004
2.1146
0.72
2.7133
2.6295
1.0139
3.0168
2.8185
1.4544
3.6987
1.0502
1.2214
2.6865
2.2458
1.0727
0.1284
1.2271
1.4154
1.2229
1.3244
1.4292
0.6559
0.9078
2.6092
3.9779
1.0257
1.3283
3.9492
0.5491
1.5871
0.7571
2.5607
0.9849
0.7032
2.9214
4.5709
1.0339
1.1936
1.2462
0.7254
3.7854
1.1869
0.6938
1.183
0.223
1.0112
1.3209
2.6987
1.6846
0.7245
1.1625
1.5909
1.3173
1.5392
3.6972
1.2266
1.1029
4.2703
0.8595
1.751
1.4886
1.6912
1.3199
0.8997
1.4576
1.7563
1.3193
0.8073
0.9525
2.6428
1.8176
1.9634
2.3468
1.3524
2.4327
0.6564
1.4458
1.2627
1.2893
1.1302
1.329
2.7182
2.9078
0.8548
2.9247
1.5116
1.3384
2.6401
4.1878
1.1636
2.6401
2.1352
2.176
1.6563
1.9685
2.8368
0.9359
1.4028
4.6005
2.3226
1.7464
1.0206
1.5054
1.8137
1.3179
4.8806
0.5849
0.7306
0.8533
0.3115
2.0666
1.8182
1.6949
0.9569
2.1394
4.0976
1.9897
2.0004
0.9349
2.9046
1.6734
0.9245
0.0233
1.5398
0.8422
1.1426
1.2805
1.4447
1.0517
1.311
3.0275
0.378
0.6014
3.7048
3.994
1.5273
1.6382
2.5653
1.1185
1.7899
1.2873
1.0394
1.5819
1.5301
1.3677
0.9567
2.3062
0.8214
2.3513
0.8085
0.9768
4.2237
2.6637
0.7201
1.3048
1.2371
2.5937
0.9437
0.7289
1.4406
1.2339
1.3476
1.0189
0.9701
2.9675
2.3299
2.532
1.2646
1.1649
0.8483
1.0098
2.0528
0.8985
1.2313
2.4153
1.175
0.8992
0.9834
0.5865
2.6615
2.5104
1.417
2.6098
2.3859
0.787
1.1977
3.0643
2.4416
0.4233
1.2851
1.7041
1.4277
2.2257
1.2499
1.5538
2.4881
0.9681
2.459
1.1153
0.7065
4.3157
1.3023
2.7179
1.1809
0.6955
4.1158
1.9607
2.7043
3.8698
2.8278
3.2296
1.3488
1.1298
1.7541
0.9886
1.6212
0.9602
1.0258
1.524
1.7333
1.1563
3.0363
1.358
0.8648
1.0294
2.8039
1.7837
1.6296
1.6364
2.1933
2.87
1.4832
1.3157
1.4759
0.4767
1.8748
1.3073
1.1731
1.1059
2.7699
1.2831
2.7351
4.6274
0.9765
2.7426
0.926
0.4002
1.0743
1.6455
3.8436
2.7721
1.5815
2.8735
3.9396
0.8887
2.642
1.3125
2.8429
2.8467
2.3402
1.8254
1.0507
3.3282
0.7278
0.7696
1.5321
1.0911
0.1806
3.1206
1.4593
1.1552
1.1218
1.1066
0.3227
0.8206
0.916
4.715
0.955
1.3601
1.1234
3.8337
1.314
1.1921
1.6566
2.4976
0.923
1.5527
1.123
1.5909
2.4501
2.678
0.9392
0.8469
0.2627
1.8455
4.0104
4.4589
1.1286
1.699
3.4545
1.2877
2.8817
1.2248
0.884
3.471
0.9261
0.3687
1.5108
1.3998
1.5588
0.7996
0.7356
1.424
2.7921
2.0266
0.9059
1.8727
1.5307
1.0926
0.6847
2.3101
4.0376
0.6007
4.7726
1.6711
0.6979
2.0024
1.0039
1.2023
2.4722
0.7341
4.0682
0.4347
2.5123
1.1604
2.7059
0.5468
0.5694
1.2778
0.6992
1.107
1.7209
0.6648
2.3431
1.6079
0.4258
1.1129
2.1903
2.7268
1.5816
1.01
3.6594
0.5532
2.7099
2.7182
3.2167
1.0465
1.3188
1.1471
2.2411
1.3083
1.6437
1.4714
0.8923
2.3523
2.5405
3.026
1.0571
1.6946
2.5622
4.1695
1.6258
2.0303
1.0976
1.0261
0.883
2.3334
2.4032
3.9905
4.6131
1.4185
1.5036
1.4958
1.7017
2.3756
1.2899
3.4965
3.4999
1.2453
2.5853
4.2435
1.4582
4.8807
1.2013
4.1578
0.899
1.5703
2.4211
1.0819
1.4687
1.2335
1.2098
0.8374
2.7411
2.1281
0.6525
3.7357
1.5319
2.7085
1.7811
0.8866
1.5776
1.3422
3.8063
0.9343
1.2065
0.8358
1.6775
1.5092
0.9929
1.1323
2.9434
1.1722
2.0408
1.4216
0.8536
2.28
1.6491
1.0141
1.2593
1.6906
1.2072
0.6041
3.5965
1.724
2.5238
1.0428
3.3278
1.6119
1.8798
1.7408
1.5437
1.8568
0.877
2.3386
3.5983
0.4601
2.6695
3.5479
3.7229
1.1075
0.0804
1.1672
1.2064
3.2993
1.2918
1.2512
3.1433
1.0992
1.2816
4.6687
0.8851
1.6195
2.1818
2.8523
1.4872
1.0321
1.1238
1.9092
1.1544
4.4702
4.2531
0.9191
0.9464
1.3669
1.7995
2.1995
1.8695
1.4709
1.0995
1.34
4.5072
0.7379
2.5783
1.2016
0.51
4.6063
0.938
0.9608
1.1648
1.39
1.3574
2.6459
1.3408
0.896
1.2666
2.812
2.4373
2.6388
2.8197
1.164
0.6725
1.7908
1.6986
1.1973
4.9287
4.5066
1.112
0.9049
2.2704
1.1347
3.8396
0.8622
1.3438
0.6297
0.5198
2.6633
1.4494
1.3725
0.5298
0.8987
2.4318
0.5525
4.2446
4.3257
1.1196
2.1192
2.0415
0.8584
1.6064
3.098
1.028
1.3735
0.6376
1.0446
4.4285
4.235
1.5011
2.4713
1.6063
0.796
2.7702
0.957
3.4847
1.4928
3.0859
2.3874
0.7659
1.7165
2.9021
0.7493
0.6916
2.4773
2.2534
3.1141
0.4702
5.036
1.3625
1.4412
4.2771
0.5261
1.5364
1.2141
0.7943
1.659
1.6224
2.9907
2.9365
0.9726
1.4291
1.649
1.5978
1.8369
1.1682
0.8977
4.876
2.61
1.393
1.282
3.0677
5.0436
2.6432
1.3034
1.7884
0.726
2.2943
0.9245
1.5276
1.2296
0.9286
1.7302
0.5572
0.9093
1.1357
1.9693
0.9211
4.472
1.1349
0.6971
1.421
1.0752
0.976
0.6364
2.6557
1.8422
0.9398
0.7298
0.4952
0.4586
1.1457
1.2372
4.4071
4.1927
1.2788
1.8358
1.7294
4.7621
1.6301
1.4781
2.1204
2.5587
1.3174
0.8332
4.9882
1.0612
2.0915
1.0365
1.3784
2.3433
1.1402
2.0975
1.0137
1.2067
1.1632
1.5426
0.7871
1.3524
4.484
0.9036
0.8307
4.9925
1.0724
1.373
2.7801
2.1655
1.2877
1.2655
4.9956
1.2653
1.5252
1.5438
1.0856
2.1085
0.8815
0.5147
0.3364
2.4711
3.4369
0.9071
1.2017
2.7136
1.0404
0.9033
0.9911
4.4727
2.2854
2.3997
1.34
1.2423
0.4958
1.645
1.002
0.714
0.6216
2.9832
0.292
1.3772
2.9109
2.5009
1.875
0.7809
1.4269
1.2476
1.9402
4.1043
1.3803
1.2449
0.5521
1.138
0.9484
1.2478
1.3888
1.7692
0.2112
1.2002
0.6497
2.812
2.1415
1.0576
0.8651
0.9994
2.204
0.0609
4.3461
1.1806
0.8754
0.7348
4.6049
1.728
2.6738
1.9382
1.1207
1.3416
2.5313
1.1217
2.3984
2.5386
1.5991
2.6935
3.9797
1.0749
3.0765
0.7427
0.9078
1.1208
0.938
1.747
4.6629
1.1113
5.1737
2.7191
4.9066
1.7925
1.3759
2.2505
1.2243
0.8943
1.4244
2.7481
1.2925
1.5327
1.3318
1.1608
0.6836
0.9326
0.7723
1.5609
1.1335
1.2943
0.9966
2.9976
1.4532
1.2417
1.1776
0.8532
0.9414
0.5526
1.4621
2.8664
1.5222
3.8054
1.8087
4.0812
1.4085
3.6775
3.0163
2.8525
2.5331
2.4744
1.4735
4.7494
2.3609
2.5977
0.9863
4.7733
0.9465
0.6903
4.5394
1.7664
4.5116
2.9853
2.057
3.1719
3.212
1.9504
0.9912
1.4985
2.6828
0.576
2.6768
3.001
1.4331
1.1719
0.9229
1.4369
1.132
1.6722
1.6572
1.3714
0.7664
1.0313
1.9721
2.8035
1.7646
2.3049
2.4991
0.498
2.8087
0.4622
4.7277
3.8689
1.1368
2.7401
1.5391
2.5748
1.2899
1.3225
1.2317
2.5695
4.0133
2.7438
2.7323
3.932
1.1246
0.4661
1.102
0.4778
1.0036
0.7694
0.8771
1.7809
3.7208
1.039
1.3409
1.9938
1.1363
2.7084
0.749
0.5948
1.5315
3.3867
2.4994
3.6997
0.2149
1.6792
2.8561
1.7192
2.6754
2.2372
0.9881
2.1428
1.0841
1.6474
0.9914
1.3463
2.7169
0.6675
0.6768
1.4803
0.8214
1.3706
0.8145
0.8966
2.7562
2.5667
1.0515
0.7774
1.2493
2.3498
1.4206
0.7851
1.047
1.4286
4.3625
1.3592
1.1398
0.6977
1.5518
4.2178
0.9216
2.3869
1.875
1.1127
2.0227
2.1653
1.6971
1.045
3.962
0.7291
1.209
1.5762
4.2552
0.9827
2.1149
4.0952
1.3057
0.8209
1.7181
0.9933
1.3379
1.0107
1.5152
1.2483
4.916
1.2585
1.4144
1.2831
0.7027
3.0104
2.7399
1.4263
1.6206
1.6405
2.269
3.6578
0.852
2.215
2.4746
2.247
3.7401
2.729
0.5004
1.2042
1.5499
1.5462
2.8177
4.5426
4.5142
0.7259
1.0854
1.452
0.9869
0.9909
1.2973
1.9266
1.5311
0.5107
1.2521
2.2955
1.5615
3.0451
3.2633
2.8986
1.398
1.4148
0.7638
2.5978
1.2632
0.9117
4.4193
2.0828
0.4599
2.8231
2.6081
1.3912
4.2879
1.072
0.5991
1.4771
1.3822
1.3839
1.6894
0.98
1.171
0.8388
2.4457
2.1984
2.3673
0.2512
2.7415
5.1053
0.7132
1.0675
3.2016
4.4532
1.3131
2.3292
1.1082
0.9326
1.3711
1.3814
1.0026
1.0775
1.691
4.8054
1.04
2.514
3.6934
2.5331
1.206
0.5312
2.7473
2.5451
3.0845
1.8065
2.0442
1.3489
1.0733
2.7209
1.1015
1.6941
2.8471
0.9992
1.4855
0.4513
4.9042
0.9063
1.7713
0.9988
2.6544
1.0573
1.3882
0.7113
0.2462
1.7351
1.8347
2.4721
3.8541
4.1295
0.7194
1.3461
4.0629
2.4618
2.433
4.1825
1.0478
1.1654
3.9274
4.6793
1.3461
1.1684
0.7675
2.9399
0.9326
1.2297
2.434
1.4779
1.9715
2.4277
4.5329
3.8834
0.3803
0.9134
1.307
2.2366
1.127
1.128
1.9204
3.8431
4.9311
0.8353
1.4221
2.522
1.001
0.5941
1.4191
2.9527
1.4044
0.9048
1.0402
2.5616
1.4568
1.6732
2.537
0.4253
0.421
0.8672
2.9378
1.4303
1.4815
0.8927
2.4797
1.5796
1.8887
1.5892
1.5895
0.8751
1.4625
0.6416
1.6552
4.3755
1.0786
1.9286
1.0656
4.2199
1.2322
1.0843
0.9684
0.8308
3.168
2.0278
4.3178
0.8615
2.2759
1.0814
2.0068
2.7112
1.7016
3.015
1.4769
0.7173
1.6943
0.6715
0.8775
1.3218
1.0398
4.3538
0.6495
3.8911
1.4581
5.467
1.8017
0.5259
1.08
0.9373
1.1866
1.3166
2.4436
1.6305
1.7116
1.6844
0.811
1.3386
1.6394
2.9019
1.5161
1.8107
4.0245
0.4626
2.5318
2.5504
2.2839
0.9275
4.7579
2.1666
2.0362
1.1917
1.5548
2.7092
0.8597
1.7796
1.454
0.8096
1.0412
1.134
1.7192
0.7016
0.2428
2.2392
1.2925
2.3054
1.123
0.9903
0.3239
0.909
1.1095
1.6073
2.0455
3.8815
2.6872
2.7994
2.2371
0.9699
0.8464
1.0466
0.8435
4.5325
1.6225
1.3082
1.2784
4.852
1.1133
1.5411
1.1059
0.7124
4.7678
4.3718
1.6646
1.3839
1.4374
3.8662
2.3173
2.8064
1.7851
2.6023
3.9662
1.5582
0.6634
4.9139
1.1006
1.5426
1.3382
1.7127
1.7385
1.2903
0.5544
3.2093
0.6298
1.4144
1.7941
1.4351
0.9486
1.2997
0.9806
0.9674
4.358
0.14
1.1161
1.2802
4.2866
0.8884
2.8114
4.2608
2.0925
4.4967
2.4682
4.5971
0.5052
1.2507
2.7359
1.2556
0.8651
4.2756
0.7276
1.951
1.2468
1.4153
0.6086
0.9598
1.4634
1.6413
0.8192
0.6433
2.7967
2.5145
0.552
2.0655
0.9465
1.6573
1.7095
2.7238
2.683
1.0446
0.2624
1.6684
2.7622
0.8485
1.7804
0.7041
1.6848
0.4649
2.2903
0.6238
1.7111
0.9352
1.4609
1.9546
1.0888
2.2358
1.9677
0.5745
1.1993
1.1033
1.2272
2.5106
0.8219
1.1738
1.4458
1.7973
1.5972
1.2784
3.147
2.4845
0.9572
0.8648
1.4217
0.4216
0.8924
4.3194
0.5682
1.2399
1.7672
1.7017
2.5944
1.624
1.4035
2.696
1.4756
4.0673
1.0826
1.3913
1.2001
1.6882
1.5359
1.5334
1.4375
1.2796
1.5225
2.9797
1.3621
0.8515
1.2094
0.5802
1.7474
1.5242
0.8465
0.9292
3.0749
2.4002
2.1298
3.7126
1.0761
1.0074
2.5048
2.8679
2.4426
1.3796
2.2538
1.7217
0.7561
1.2123
2.5872
1.3445
1.5466
1.0191
1.5587
1.6884
2.5624
3.2292
1.3438
1.0582
1.2387
1.9664
1.3607
1.3603
1.4007
1.5977
1.3533
1.458
1.2309
1.2795
1.6228
0.8904
1.2101
2.5424
0.6195
0.6683
1.2065
1.6446
1.2911
0.9617
1.7937
1.038
2.2999
1.9752
1.2358
1.9006
1.1988
2.637
0.6022
4.0473
2.7888
1.4883
1.2634
2.5344
1.2144
0.758
1.8176
1.5426
4.1824
2.4795
2.008
0.9432
2.5595
3.1289
1.3053
2.0908
2.7257
0.9613
3.5944
2.4585
0.7487
0.8649
4.3353
0.6375
1.5903
2.53
0.8936
2.5265
3.7576
0.7509
1.0367
1.3225
1.4058
1.0015
4.1393
2.7031
4.9321
2.6528
2.418
0.822
1.5957
0.2525
0.9826
0.819
1.5353
1.7518
1.1064
0.8851
4.17
4.4143
1.4364
1.1431
1.7578
0.9601
1.0386
2.5202
2.7225
2.9158
3.6713
0.7299
1.3263
2.2704
1.082
1.0569
1.702
1.9102
0.9932
1.4264
2.5212
1.5399
3.7336
4.743
0.9437
3.6113
0.9725
2.5424
3.7554
1.1807
2.8498
0.8576
3.1425
2.2243
1.0955
1.4527
1.3617
1.1423
1.098
0.4915
1.1393
1.5339
2.439
3.1319
2.762
1.6884
1.1071
1.2677
1.4424
2.5197
4.7191
0.9648
2.0231
0.7183
1.407
0.9224
0.8052
0.8249
1.7715
0.7699
1.5597
1.5193
2.2362
1.4011
0.8943
0.4107
1.5667
4.6808
0.9668
1.6941
1.163
2.6622
2.5821
0.6874
1.0933
0.7047
1.4209
4.5118
2.0076
1.4497
1.1644
2.0697
4.3165
1.0443
0.901
0.712
1.3471
1.2327
1.2526
1.6736
1.8398
0.3269
1.3511
0.9786
4.4567
0.8774
2.0199
1.4337
2.5654
1.702
3.8459
1.4532
4.1261
1.155
4.9923
3.4229
1.36
0.8774
1.1462
2.3928
0.9412
1.2502
0.914
4.7566
1.1098
1.1741
0.9658
0.6759
0.7239
1.2922
2.5217
2.723
1.6311
0.8909
2.1115
0.7912
2.247
4.6207
1.1871
0.8732
2.222
0.801
4.2455
3.0844
3.4998
1.2527
1.5011
0.9873
3.1031
1.3062
1.5433
1.524
1.6783
1.1307
1.8872
1.1606
1.0957
1.0769
1.0466
1.0457
4.2522
1.2337
4.2592
1.1125
2.8822
1.2709
1.3771
2.3277
0.6829
1.4755
4.5928
0.784
2.2687
1.7143
0.9908
2.4057
0.7357
0.74
2.0981
1.1384
1.064
0.7086
3.478
1.9146
1.6243
1.2578
3.058
1.0804
1.2418
2.6521
1.7301
1.7677
2.7523
0.1999
2.4592
0.8751
1.1854
1.094
2.7357
0.41
1.2477
2.3145
0.9438
1.1352
1.8399
1.3951
1.1258
2.1892
2.6097
0.7876
1.6168
4.1862
0.7299
1.1322
1.5973
1.579
2.5453
1.4873
2.6905
0.4611
2.5069
0.5013
1.4565
0.8632
1.2634
0.4767
1.2314
4.1586
1.3825
2.5237
1.2105
1.6633
2.9296
2.0436
2.1675
2.2656
1.1828
1.2638
3.2708
1.7459
0.9412
0.8389
0.3896
1.3508
1.7796
2.3781
0.894
2.8262
1.6485
1.2843
0.8788
1.0991
1.0384
2.8112
2.3811
2.2167
2.004
0.947
1.5986
3.8275
3.5263
0.6819
0.7729
0.9512
2.1919
0.299
2.8884
0.7289
1.3112
3.9572
0.8503
2.8566
4.1678
1.7113
0.9596
0.7247
1.0378
0.9113
1.8999
0.8952
1.3246
2.6077
2.2528
0.8212
1.2431
1.2448
1.0318
1.1283
3.4603
0.8113
1.5976
0.9501
1.5954
2.9937
1.6599
3.162
1.3791
1.8605
1.5652
2.0317
1.3376
5.2489
0.3659
1.1648
0.7105
0.8414
0.9442
1.3349
2.494
1.3207
3.2466
1.6167
1.241
4.0851
1.3681
0.4328
0.9877
1.386
1.2334
1.6471
1.5771
2.7498
1.0276
0.9383
3.0022
1.3569
0.817
1.6017
1.3361
4.1564
1.5239
2.7996
3.0712
1.7605
0.9703
1.1696
2.5063
5.0566
1.5295
1.1762
0.8831
2.6445
0.2704
1.0578
0.7794
1.5906
1.0634
1.2462
2.5882
1.6104
4.6753
1.4246
1.3319
0.5302
1.1098
1.7002
1.285
1.0646
0.9914
4.0129
1.2406
2.4332
1.6644
0.4751
4.5641
1.7934
0.7514
1.4673
1.3625
2.3631
2.2498
1.3976
3.2493
1.7275
1.4706
1.3909
1.2846
4.1938
1.4208
0.853
1.5665
1.195
1.2016
3.168
0.6754
1.4866
1.8223
1.4288
1.2972
1.181
1.5685
0.3703
2.7949
1.0751
1.1791
2.7922
0.8063
0.9494
1.7764
1.0497
0.7148
1.4298
1.7713
0.6649
1.6386
1.8224
4.665
1.1531
2.9917
3.028
2.2682
1.537
1.2539
1.2369
0.4693
0.3798
1.2561
1.1513
1.1459
2.5512
0.7931
1.5703
4.8784
0.5949
2.8619
0.6838
1.0964
2.774
2.4024
0.8422
2.632
1.5643
0.9851
0.8397
1.0096
4.7512
1.2119
1.2442
1.0563
4.153
1.5078
1.258
3.2191
1.0045
1.7787
3.6134
1.2606
1.2043
3.086
1.0663
3.2037
0.5734
0.8889
0.9158
0.6682
2.6374
2.5419
1.6398
0.7031
2.1648
4.97
0.9511
1.485
0.957
1.4715
2.1936
1.4546
1.0323
0.5861
1.1749
1.197
1.2756
1.9419
1.0342
1.1317
0.6169
2.7518
1.1433
0.7439
1.2528
0.8137
2.094
1.0628
2.2458
1.437
3.0573
2.2204
1.6063
0.6663
1.5104
1.6381
3.1487
3.7049
2.3684
1.5808
1.6795
0.9233
0.519
3.6614
3.6722
1.0752
1.3149
0.9947
1.2525
1.7453
2.4225
1.1478
1.4496
1.4079
1.4324
2.4764
2.8851
4.2865
0.7004
1.216
2.5393
0.3375
2.0962
4.2456
2.0472
1.3726
0.7919
2.2705
2.7486
1.282
0.9238
1.602
1.2546
2.048
5.1368
1.4481
1.0429
1.3064
0.8555
1.4805
0.6634
1.3108
1.6341
1.4108
0.8432
1.7773
2.6388
1.2214
1.4696
1.5438
0.853
2.5175
1.695
0.5614
1.3776
0.8889
1.0687
2.3366
0.9791
1.178
1.1422
0.8814
1.9521
0.8349
0.8559
1.481
3.814
0.9135
1.6902
1.0493
2.7676
0.8013
3.0139
1.1878
3.6359
1.4886
1.1156
1.6271
3.0552
1.0395
1.2617
4.2526
1.8321
0.8459
0.5852
1.1158
2.3375
1.1337
1.7955
1.3256
1.3667
2.1919
2.5517
0.93
4.2555
0.9127
2.7678
0.756
0.8483
0.1081
2.5281
3.9911
2.6801
2.3007
1.6826
1.5685
0.4858
1.4478
1.4604
1.3888
0.861
1.2728
1.3659
1.0198
4.4536
1.518
1.1262
0.7702
3.4755
1.0922
0.7898
1.0167
1.3603
1.3616
1.0112
0.8555
1.0835
1.7652
2.0128
1.0212
2.2549
1.5778
2.7514
2.6625
0.8186
0.7172
1.3546
1.1682
0.8362
1.1783
1.0953
1.6113
1.4
1.122
2.6924
2.7591
1.2003
0.6091
3.0556
5.2163
1.7088
1.6344
1.0288
3.1371
1.355
1.6492
1.2841
2.2538
1.1356
2.8956
2.4999
1.2941
1.0253
0.8916
0.3208
0.7961
0.9833
1.684
0.8069
2.3116
1.9883
4.6642
2.479
1.4658
3.8376
3.1547
4.3698
1.9562
0.9001
1.4213
0.7838
0.8477
1.0679
4.7791
1.2242
1.3208
3.9816
1.2093
2.6442
1.4097
2.4727
1.2803
0.1514
0.489
1.2059
2.2114
1.4157
2.5674
1.2986
1.5825
4.115
0.5155
0.8293
1.6084
4.9044
0.9792
2.6251
0.4357
1.3821
2.9058
1.0618
1.5142
1.5988
1.0347
0.393
2.2155
1.33
1.2014
4.0345
0.5102
2.3738
1.5774
1.8549
1.2362
0.4646
4.3291
1.2367
1.0201
2.3861
1.1887
2.8379
1.0825
0.988
1.1564
1.3328
1.2551
2.6491
3.9295
2.8642
3.0249
1.2138
1.5418
1.3047
0.7777
1.4737
1.1947
1.5178
1.8573
1.062
3.8109
0.9241
4.503
1.4497
2.8512
2.5182
1.2585
2.6435
1.8078
2.4825
0.9632
1.0197
2.9809
1.5386
2.2397
0.6815
2.7692
2.617
3.4452
0.7046
1.2039
2.2824
4.5208
0.826
4.858
0.7791
0.9651
1.7807
0.7762
1.8592
3.3378
4.4357
1.2961
1.6208
2.6894
1.3079
0.9362
1.1033
1.8104
1.3848
1.4631
1.312
1.134
0.4749
3.0379
1.5073
1.2259
2.3732
4.5926
0.8418
1.4725
0.9563
1.3421
1.7603
1.2719
2.8063
1.9784
1.3691
0.8311
1.487
1.0857
4.9373
1.0686
1.0726
1.4165
2.7328
2.8493
4.0507
1.5461
0.5521
0.9864
1.4596
0.4679
1.3957
1.3226
0.9207
1.3962
0.9433
4.5583
1.3532
1.6107
2.0971
1.3592
2.9992
3.7411
1.4587
3.3
1.4873
2.272
1.549
1.7195
2.8284
0.4682
1.0366
2.0105
3.2979
2.8165
1.5243
2.3048
2.3575
1.128
1.6132
3.896
3.2626
3.5878
1.1236
1.7819
2.3035
1.0085
2.6881
2.3099
0.5171
0.9042
1.7199
1.1222
2.2965
0.7858
1.5869
2.4082
2.7743
1.0704
1.3428
1.5882
1.6241
0.8189
2.5774
0.9934
1.6822
2.3274
2.7653
1.3506
2.355
0.5192
0.9334
1.0758
4.1244
1.061
1.4727
1.5412
1.6548
3.9089
4.1801
1.8117
1.1334
1.9863
2.4561
1.4286
1.4913
4.1624
1.0303
0.7629
1.0493
0.6486
1.6633
0.5736
2.4214
2.6953
2.6506
0.8553
1.3296
2.2142
1.2883
0.8932
2.1875
1.0796
1.5726
0.8732
1.4901
2.6123
0.7843
1.0319
1.1276
1.8319
2.1469
1.0211
3.6423
4.5848
1.3776
1.3525
0.904
0.7952
1.2913
1.5252
3.2931
4.7398
1.7677
1.6275
1.1345
0.8347
1.9736
1.0859
1.6061
2.4367
1.2365
0.9509
1.3752
4.099
0.0888
3.6529
2.8355
0.296
1.2174
1.4537
2.1743
1.6104
3.0967
0.6872
0.9343
1.2615
1.8709
2.4951
1.512
2.6505
2.421
0.4541
0.8662
3.8792
3.2267
2.9149
1.0217
1.247
2.4027
1.7193
0.9165
2.3709
1.2081
2.1691
1.1068
0.9265
1.3958
1.7519
4.2172
1.2504
1.4746
0.5093
0.9836
1.5095
1.6778
1.4753
1.8157
3.8993
1.6475
1.1847
2.0199
2.7621
2.5464
3.2993
1.2978
1.0181
1.2394
0.9973
0.7237
1.203
0.8594
1.5565
2.0639
1.038
1.8389
0.555
4.654
1.2952
1.4129
1.6923
4.373
0.5876
4.5372
4.4474
1.062
1.1283
1.5261
1.278
1.0242
2.6613
2.2823
0.8705
1.1862
1.164
1.2737
1.1787
0.6696
3.1236
1.6716
2.7465
1.0006
2.9462
1.5505
1.7657
1.4469
2.524
2.8101
0.3813
1.0315
1.9521
0.6816
0.4865
1.0746
1.0835
1.5705
1.3058
1.1948
0.5267
1.2036
0.8914
2.8706
1.2163
0.1867
1.7448
2.2704
1.2521
2.5806
1.4158
0.9554
0.8869
1.1105
1.804
0.6988
1.213
1.3211
2.6764
2.4498
1.0402
2.5762
1.1892
3.3269
1.4329
1.3586
1.5613
2.0319
4.3495
1.1434
2.6777
2.5578
2.7575
0.9338
4.2627
0.5111
1.0431
1.0642
0.1796
1.2432
4.3791
1.0392
1.5038
1.7487
5.1021
0.6715
1.4217
1.249
2.6115
0.6719
2.6212
0.2371
1.1112
0.4973
2.4601
4.6623
3.9275
1.9982
1.3093
3.9036
3.2848
0.539
2.4022
3.9729
0.9384
0.6014
2.7508
1.9055
1.316
4.6097
0.6593
3.1601
0.8372
1.0602
0.4794
1.1272
4.4282
0.6668
1.2715
2.7556
1.495
1.1713
1.7056
0.6523
2.739
0.8686
1.3103
1.2226
0.8517
1.1399
0.8424
3.2383
1.4539
1.9897
3.8068
2.0448
4.3601
1.3331
1.4826
4.5308
1.9512
1.4809
2.2633
0.582
1.9916
1.1748
1.7554
0.8222
1.4663
0.8178
0.1555
1.6592
0.6661
0.6165
1.1241
4.159
1.2923
1.3421
3.8293
0.623
1.7209
1.5326
0.662
0.4993
1.0103
2.1687
0.9954
1.5026
1.103
1.667
1.0384
1.6338
3.9914
1.8016
1.3328
0.3558
0.9137
0.1122
1.1585
1.2429
2.7857
0.499
0.7587
2.4978
1.4063
1.2692
2.2776
1.6224
2.0944
2.7141
2.3324
1.5166
3.9267
2.4268
1.3181
1.7759
1.9601
1.0516
1.114
1.7261
1.2003
0.7339
0.4715
1.257
2.415
1.4983
0.9761
3.2052
0.7862
0.6315
1.108
1.4558
1.5374
1.2011
3.23
2.594
1.0395
1.3243
0.6902
2.9661
1.7144
4.2722
0.7603
1.2702
5.0109
1.4115
2.88
1.5983
0.6811
1.0791
1.4716
0.5643
1.6851
0.591
0.9542
1.6665
1.1199
1.2585
2.0301
2.9302
1.143
0.5061
2.951
1.153
1.0763
4.2105
1.0241
0.8929
0.9827
0.9387
0.7657
4.4932
1.509
1.0817
2.0711
4.8095
1.4403
1.5657
0.63
3.0227
0.9064
3.2157
2.382
2.1847
1.456
1.5232
1.5504
1.0552
1.4268
2.3533
1.9369
1.5135
1.7432
4.2546
0.9979
0.6498
0.9212
4.1694
2.8861
1.369
1.3041
1.4984
1.1481
1.4996
1.2967
1.2764
0.8897
1.0537
0.4058
0.8314
1.6513
0.8768
1.3635
0.841
2.9229
2.7833
3.6788
1.6032
1.7395
0.8507
1.0927
0.7741
1.5542
1.2121
1.2092
0.2925
2.5816
4.8237
2.1373
1.7475
4.6169
2.4678
0.9388
3.9092
1.0538
1.0135
4.5168
0.5711
1.0405
0.3772
1.5776
1.0457
3.1975
2.8659
0.3844
0.6302
2.4988
2.1497
0.8016
1.2827
1.6468
4.8184
1.1385
2.2852
4.2227
1.6164
1.484
0.438
0.5283
0.574
2.9691
0.6638
3.6171
2.6593
1.6132
1.8703
3.688
5.1959
2.0126
0.9862
1.4379
0.7393
1.0684
2.4764
1.6734
0.4787
2.6078
0.8925
2.3397
4.0258
1.7449
2.9682
3.1707
4.584
0.7253
1.9497
0.7485
1.4796
2.482
1.3668
1.0284
0.6801
0.8436
0.4349
1.6638
1.522
1.3132
1.3459
0.7807
2.6801
3.9436
3.3049
2.7488
0.8714
1.0361
1.167
2.4787
2.2852
2.7697
1.5439
1.5821
1.4823
0.7668
1.4841
1.4821
1.3915
1.6191
0.8933
1.0518
1.5737
1.1591
0.9385
2.7247
1.7522
0.9067
2.0798
0.8664
1.1355
1.8558
1.1978
2.9536
2.157
0.9994
2.676
2.1168
0.6558
1.5042
1.0812
2.4671
1.0167
1.9669
1.613
1.4647
1.151
0.5281
1.1943
1.0546
0.4648
2.0066
1.5852
1.4149
0.4329
1.7017
1.044
1.0048
1.3679
1.2599
5.1686
2.1705
1.0912
0.6327
2.2098
1.3861
1.1991
1.8652
2.3082
1.9329
0.9165
0.9773
0.8271
1.3258
1.5129
0.9005
3.1216
3.7683
1.219
1.4262
1.6099
1.7759
2.5527
1.4326
1.4428
0.8349
1.1083
0.7687
0.9919
1.1364
1.4195
2.4643
1.6059
0.6076
1.0135
2.4325
1.583
1.0614
0.9795
0.6718
1.4618
3.4778
1.4788
1.1409
0.9607
4.0643
1.0614
1.0545
3.3037
1.6214
0.7181
0.7611
2.5357
1.5196
1.3009
0.7775
1.797
1.1032
1.9725
1.383
1.4005
0.8687
3.4498
0.809
1.5387
1.2745
2.2092
3.2225
1.2209
1.2885
4.4841
3.9187
3.063
0.5299
1.4503
2.2778
0.4119
3.5979
1.5799
2.0528
1.4126
1.2047
4.4882
2.4108
1.1056
2.6526
1.5727
0.7696
3.9935
0.9913
1.7072
3.5351
1.8646
2.8344
1.3804
0.7843
1.4775
4.1675
2.6703
3.1814
1.0978
3.1004
1.0564
1.6385
0.7376
2.2005
1.2935
2.8717
4.495
1.6423
4.4371
2.1718
1.2937
0.9234
1.219
2.5089
0.9865
1.069
1.8555
0.3369
0.673
0.7158
1.0355
1.4213
0.0648
1.0101
1.4766
2.9514
0.4787
1.5895
1.4915
1.6779
2.5778
1.2578
1.4992
1.2259
0.5116
0.7375
4.1664
1.8426
1.3742
0.8502
3.896
0.9004
2.5134
1.0829
1.0561
4.0894
3.5164
0.5298
0.9491
0.673
1.0622
1.4796
1.6603
1.4765
1.1637
1.3979
1.1489
2.5381
2.7908
2.4953
0.526
1.0103
0.4664
2.4643
1.3047
1.261
2.6019
1.0862
1.2741
1.4023
0.9922
0.6695
1.2894
0.7283
2.3095
1.5286
1.276
1.7567
1.5972
1.1658
2.8952
0.708
1.0916
1.1805
1.033
1.5098
4.3378
1.2891
1.8193
1.168
2.962
1.6387
1.4512
1.7992
1.227
1.3079
0.9023
1.0006
1.2827
1.0382
2.756
1.1831
1.6396
2.5905
1.5902
0.5584
0.8621
2.6978
0.9899
1.161
1.1257
2.5646
0.561
2.6564
1.879
2.6292
2.6261
1.9261
2.2493
0.7962
1.9686
2.5747
0.6955
1.5094
2.1986
1.0941
2.5078
2.6335
2.1869
3.5484
2.8669
1.6744
1.7085
3.5051
2.3986
3.3761
0.8149
2.086
0.9676
0.3201
0.4528
0.937
0.9515
0.4277
1.7039
1.001
2.496
1.0022
1.1626
1.9494
1.413
1.1969
0.7221
3.8437
1.0205
0.9943
1.3958
0.4696
4.587
1.0726
0.6479
1.2051
1.0695
2.367
2.2441
2.4597
1.6042
1.9184
1.213
4.6102
1.4636
1.6027
2.5706
1.4981
1.3489
0.8671
1.5017
2.4088
1.8603
0.8467
0.9645
0.2675
2.3373
1.9178
1.8556
1.2106
0.9144
1.2979
0.8441
1.0254
1.4297
1.0306
1.1971
1.4427
1.4528
0.9759
0.8986
1.4514
1.1503
2.8732
0.8929
1.0173
1.5421
0.9898
4.5495
4.3658
0.9894
1.9273
0.7418
1.2083
1.1428
2.0675
1.0782
1.6881
4.1181
1.0652
3.0585
0.655
1.6276
0.4078
4.6817
0.635
0.8496
0.669
1.4931
4.238
1.5267
4.299
1.0177
2.8253
4.3329
1.2524
0.9965
1.1872
1.0766
4.059
1.2473
3.4166
2.3919
1.9252
1.4774
1.1004
0.7222
0.569
0.988
1.174
2.9992
1.5985
1.0797
2.4645
2.5373
1.1985
0.8813
2.6761
1.2222
1.2327
1.819
1.7687
1.3858
1.3381
5.2335
1.7259
1.6159
5.3774
1.0591
1.3349
1.1762
1.3073
1.6439
1.8798
4.1213
1.5665
1.6258
2.5293
1.3497
2.7813
0.5086
2.8145
3.3762
1.5265
1.3393
2.9806
0.0183
4.7211
1.6175
1.9337
0.541
4.5278
0.3817
1.4596
1.6991
0.8726
1.0897
1.2121
0.5586
1.427
0.4046
1.1086
1.9507
1.2846
0.6565
0.7643
0.4948
1.4629
3.6674
2.9216
1.2744
0.3805
0.4067
0.8109
1.1274
1.7292
1.4011
1.4953
1.0735
3.491
1.4461
1.2387
2.4435
1.2245
0.8965
0.9055
2.7663
1.4237
0.4992
1.0986
4.0201
1.8498
1.5513
1.4976
0.9438
0.7327
0.8701
1.6928
0.6957
5.1194
1.2526
3.2591
1.7034
0.3975
0.9033
1.3759
0.9593
1.4701
3.4616
1.9381
2.2295
2.4394
3.3224
2.4886
1.1617
1.4099
1.26
1.91
2.0401
1.4725
0.6155
1.9213
3.207
1.2362
0.5111
0.4957
0.7245
1.1963
1.8955
1.6577
3.0485
1.4744
2.7356
1.3223
0.777
2.3206
4.1459
1.0504
1.3238
4.8461
0.8034
1.1054
1.6107
4.6485
2.7748
1.3702
1.2355
1.2915
3.3282
0.6867
2.6307
0.8553
1.5537
2.6861
4.0847
1.1718
1.5704
2.2293
2.5765
2.8647
1.1261
1.9273
3.1894
1.0599
4.226
0.798
1.6624
1.655
1.1905
1.5661
1.1339
1.1722
1.6364
0.8844
1.4102
0.9469
2.0397
1.2311
2.6161
1.1603
0.7724
0.7262
1.8219
0.8631
1.0209
4.2463
1.2372
4.3084
2.8629
3.1177
1.228
0.552
1.4627
2.6598
2.54
1.0032
3.1852
1.2148
0.8845
1.4181
1.7619
0.795
1.8152
0.6611
1.3147
1.5797
0.9382
2.2618
1.0571
1.846
1.4385
2.2242
2.0407
1.0114
2.7542
2.9289
1.5589
1.0548
4.4678
1.3937
2.7002
3.2826
0.9371
0.8261
1.4408
1.4525
1.5463
0.7509
2.8528
0.4723
1.0829
0.4764
2.3744
4.8715
3.829
2.8744
1.4179
0.4505
0.5959
0.9905
0.6787
1.2128
1.1653
3.7878
1.2853
0.4723
3.3625
1.7541
2.388
2.9426
1.3701
1.3731
0.7663
0.7517
0.8516
1.428
1.0021
3.1899
2.3093
1.7013
0.7723
1.3527
2.4014
2.1649
1.7468
3.7333
1.7793
2.6112
2.6388
1.5791
1.499
1.3479
2.5105
1.4641
1.5508
2.1285
2.6375
3.2114
1.4087
0.7447
1.4365
1.1625
1.3689
3.1782
0.8306
1.1674
1.2678
0.6827
4.6432
1.8277
1.3012
1.9573
1.4592
1.2652
4.6672
1.1583
2.5683
2.8254
2.0599
0.8212
3.671
1.3577
0.3306
1.0378
1.186
2.4584
1.7899
3.0664
2.0183
1.2197
2.6991
1.0017
1.6897
2.124
1.0475
1.7062
4.1673
0.9772
0.8924
0.8201
0.9824
1.4073
1.2219
1.8235
0.568
0.9251
0.6852
0.8871
3.9568
4.4562
1.4731
1.4384
1.5777
1.6487
2.7697
2.8979
1.094
3.6322
0.9141
1.8083
0.7397
1.0458
0.6724
1.6067
2.6154
4.0777
0.3385
1.2051
1.6656
1.484
0.927
0.8157
1.2462
0.5471
2.8066
2.2505
0.8349
3.8329
1.5021
0.7889
0.8293
1.8553
1.4561
4.2782
1.2426
3.3053
1.2928
1.7504
0.8289
2.1288
1.9491
2.2384
0.554
1.3249
1.4423
1.4667
0.957
1.6738
3.3129
0.9105
1.0211
1.4656
0.5637
1.1974
1.5981
1.522
0.928
2.7687
2.444
0.976
1.1143
1.9012
1.8822
4.6336
0.72
1.5765
1.1171
1.4318
0.8904
1.4986
1.5196
1.2568
2.8214
0.6786
2.8122
0.92
1.7779
1.0454
0.544
1.7618
1.2292
1.5022
4.2349
3.5675
1.0538
1.2052
1.5198
1.2549
1.053
1.0805
1.4889
1.5505
2.2978
2.6588
1.5381
1.8929
1.7516
0.6054
1.188
0.5969
1.8529
1.2882
1.5483
2.3277
2.4188
1.3477
3.0307
0.4553
1.6552
1.2927
3.3761
1.4921
2.8796
2.6424
0.967
0.8456
1.3918
3.6381
4.8652
0.8511
0.3629
2.9498
4.5525
2.736
1.6448
3.7891
2.9538
1.5949
1.5969
4.4573
3.7756
1.0441
2.9902
4.0772
0.7758
3.3575
0.4869
2.4642
1.4743
2.1806
1.1068
4.0869
1.171
0.7832
2.2108
1.6107
1.2371
0.4542
0.7633
1.8683
1.7404
0.8636
1.403
0.587
0.9919
2.467
1.3261
1.0028
4.1902
0.9078
0.5993
1.752
0.3963
1.4671
4.1372
1.7606
1.1202
2.683
2.5862
1.444
0.7759
0.9812
1.7325
1.4913
2.7312
1.2693
1.0434
1.098
1.3276
1.5257
4.3638
1.515
2.8042
0.4591
2.5025
0.9871
0.6338
4.4959
1.586
1.162
0.0548
0.6999
0.7221
3.8482
0.967
1.0212
1.21
3.1787
2.7988
1.6896
2.3446
0.9227
4.2568
1.3375
0.9816
1.1986
1.8329
0.9952
1.0295
2.2773
3.074
0.4532
1.2778
1.219
0.8908
0.8409
0.9782
3.9022
0.8125
1.1925
0.8612
1.294
4.4354
1.075
4.2171
3.0712
1.459
0.6406
4.6184
2.0179
4.5877
1.1755
1.4877
1.4835
2.9257
1.0943
0.5885
1.0127
2.6957
1.7239
1.5204
1.1165
1.1891
0.2829
1.2177
0.7146
2.017
0.7319
0.2079
0.9389
1.7084
2.6241
1.3453
0.7946
4.1135
2.7529
0.8951
1.4683
0.9746
0.8201
1.4603
0.9341
4.3306
1.2259
1.5669
1.2636
1.3845
0.3851
1.968
1.3694
1.2385
0.4711
3.1012
1.1472
1.6133
0.9913
1.1461
0.5702
1.4802
4.1641
1.6585
4.2318
1.6877
3.0361
2.6178
0.9521
0.2806
0.8136
3.4005
2.5069
0.3825
0.5713
2.5728
0.8024
1.2309
3.7119
1.1226
3.3016
2.4891
2.5863
2.5628
2.6879
1.3986
1.3091
2.6633
1.1092
1.5089
0.7845
0.9903
0.5712
1.3648
1.4894
3.8365
1.4171
0.4314
2.2967
0.7296
1.2863
2.4612
1.703
2.3372
1.0199
1.0913
4.8004
0.8571
1.0944
3.0151
1.0148
0.5111
3.0542
1.2422
1.197
1.7777
1.224
0.7703
2.9143
2.5259
2.5439
3.3257
1.4534
4.2464
1.9153
0.6498
1.1863
0.9993
0.8982
1.3708
0.9987
1.3273
2.582
1.1346
0.866
2.1195
0.7288
0.9989
2.9334
1.0917
4.341
1.5798
1.1739
1.2221
1.4484
2.7728
0.881
1.8519
0.506
1.0858
4.5504
2.6417
2.2664
0.3981
2.3049
2.918
2.764
0.9053
1.1922
0.9252
1.6394
1.5174
4.3067
1.4491
1.332
0.7738
0.5001
4.5592
4.6893
0.9324
1.9815
1.2473
0.3882
1.463
2.2112
1.1506
1.3299
1.9823
1.9861
0.5605
1.2545
0.9491
1.2556
0.8366
1.8145
1.4905
2.8128
2.5935
1.1044
0.6957
1.8442
1.4149
1.018
2.8979
1.5343
1.3957
3.2143
3.0358
1.507
2.5438
2.5178
3.0328
1.7944
2.2748
4.2631
1.241
0.6628
1.9441
2.775
1.9777
0.6103
1.1498
1.1206
1.5394
1.3586
2.8153
0.9499
1.375
1.5314
2.6368
1.0034
0.7481
1.6212
1.3913
2.3259
1.7046
0.5993
2.1752
1.5442
1.5501
1.1741
2.9513
1.3881
2.6904
1.9783
3.013
0.2218
1.9047
2.0991
0.6379
4.5954
0.7684
2.4179
0.9383
4.4303
1.3377
1.1134
2.0262
1.0159
1.9045
1.5455
3.8152
2.7011
2.573
3.2143
1.1273
0.6787
2.5606
1.9509
1.7297
1.2607
0.7765
2.8882
0.7239
1.3432
1.4867
0.6502
1.1246
1.385
1.4542
1.4756
0.9105
1.0021
1.0197
0.0967
1.8067
2.5822
4.7144
1.6831
2.0882
0.7391
1.4128
1.1575
1.2197
1.4906
0.9312
1.0885
0.2691
0.9488
1.9514
1.5306
1.4797
2.9126
1.2021
1.6875
0.9354
2.5779
1.1246
1.7192
0.9021
1.0911
0.9854
1.9274
1.6834
1.4203
1.5571
2.3135
1.4719
1.3656
0.8885
3.5352
1.259
1.2196
2.0694
1.3295
1.5347
2.9933
1.1639
1.3133
2.9899
2.6305
0.9142
0.9169
1.5788
1.306
1.0766
2.3798
1.0689
4.3024
1.8934
4.7931
1.9658
2.4731
0.4181
1.1232
4.5088
1.3448
2.2629
4.6088
3.9744
3.0521
0.5301
4.0477
1.068
1.7739
1.3757
0.8858
0.1417
2.2542
2.8211
3.4471
1.1538
0.4844
4.6387
1.4317
1.0024
0.6781
0.9697
1.2209
1.1181
0.7178
0.6592
3.9079
4.5462
2.5361
1.6467
1.0124
1.5581
1.5368
1.0743
1.9807
1.5812
1.7075
1.5558
2.5306
1.915
1.6115
1.3002
1.6863
1.7404
2.9919
1.1753
2.2795
1.5668
1.312
0.7555
4.2964
2.7862
1.2838
0.2559
2.8125
2.5101
1.1321
2.8542
0.7147
1.7395
4.177
1.5599
2.845
1.3043
1.1396
1.4006
1.2925
0.603
0.4762
4.3961
2.3379
2.9912
2.0716
1.6081
4.5972
2.6691
0.3092
1.1012
4.5553
0.1706
1.5489
0.7461
0.5465
1.5445
1.1081
1.3792
1.258
4.0694
0.3326
1.4319
2.8857
1.3418
1.3994
1.2698
1.1045
1.7309
1.7839
5.0607
2.0417
3.1702
1.2784
0.9748
0.6844
4.577
1.4183
1.3762
1.4245
1.4783
1.9876
1.3268
2.8407
1.0454
2.0592
2.1018
1.7598
2.7463
1.1362
0.7047
1.544
2.3815
1.6869
4.1981
3.574
2.6937
1.2401
3.3383
3.0153
1.9482
2.9163
0.6786
1.6026
1.0297
0.9987
1.5109
0.9822
1.8404
0.536
2.6452
1.2292
3.7775
1.0608
1.0214
0.538
0.8949
1.1588
1.1298
1.5371
1.7906
1.0806
0.7089
1.4003
1.1555
1.6464
1.1673
1.2372
1.1387
1.8542
1.2745
1.6883
2.5343
2.8542
4.5998
1.0908
1.5728
0.5448
1.3313
1.4977
2.4032
4.0243
0.747
0.7852
2.3669
1.5703
2.3853
0.3725
1.4368
0.3993
4.2195
1.0835
1.0585
0.5975
1.3856
3.8943
2.8933
2.7939
1.774
1.2558
1.4426
0.9574
0.413
2.381
1.4182
1.3202
1.0923
1.0309
2.2569
1.0842
2.5304
1.7487
1.379
1.258
1.2974
1.8459
1.0222
0.9612
3.1622
1.5124
0.9296
3.1721
1.0584
1.0587
0.6301
0.7238
1.6127
4.172
1.1895
1.7487
1.4136
0.727
1.7018
1.6323
1.1462
2.2063
1.3587
0.799
1.0932
4.1482
0.8299
3.0762
0.9248
1.7394
1.249
0.6116
1.1527
3.0712
1.1367
0.907
1.611
0.8629
1.6938
2.5362
2.6134
1.0857
1.2293
2.5734
0.8209
2.5093
4.4591
1.7306
3.6982
0.7624
2.8517
5.0131
0.955
0.8059
3.0055
1.6609
0.3135
0.48
0.7527
1.5014
1.188
1.299
1.8171
3.5503
2.4071
1.3446
1.5155
1.0061
0.7896
4.7069
1.3253
0.5988
1.8174
1.3858
4.6035
1.2506
0.8907
1.2844
1.7143
2.5385
2.3104
3.4847
1.274
2.6919
1.1034
1.3396
1.7282
1.5535
1.4538
1.665
2.6953
1.0831
1.6741
3.0692
1.0762
3.807
1.1954
0.8413
1.1511
1.3744
2.3072
1.1821
1.2142
2.925
1.7817
1.0712
3.2914
1.4978
1.0357
1.0633
1.0229
0.996
1.7091
1.5422
1.1031
0.9175
4.7064
2.6831
0.7269
3.2734
1.1166
2.7144
2.7907
1.8184
0.5535
1.2724
2.6184
0.8016
1.5929
1.102
2.6146
0.8852
1.2594
2.8082
2.673
1.5276
2.4862
1.4642
1.4767
1.416
4.6331
1.0254
2.4483
3.9163
0.7622
0.9641
1.0021
0.9049
1.1758
0.6511
1.5823
1.1417
1.3045
0.7845
1.1953
1.4033
2.6781
1.6491
1.3248
0.6353
1.0248
3.7533
1.5574
1.1914
1.6765
0.6562
1.0417
1.3312
0.9527
0.0739
0.6492
1.7718
1.5858
0.4316
2.4366
2.6589
2.2958
0.9987
0.6315
3.2738
1.2392
1.0203
0.5387
1.0801
1.0207
2.3844
1.0364
2.2386
1.6372
1.5781
3.0349
2.0806
1.9909
2.5884
2.1865
0.7315
1.1704
0.6261
2.1465
2.7428
3.9707
4.0127
0.9313
1.5032
0.871
2.3702
2.0184
2.3077
2.2087
1.1756
2.4398
1.2278
1.5512
1.1159
1.2576
4.6454
1.2954
2.4405
2.9504
1.3615
1.8558
1.6994
0.9553
2.6451
1.128
2.082
0.7748
3.2632
2.2858
0.9599
4.0129
1.0755
1.0111
1.8969
3.8008
0.3018
1.1957
4.3698
1.4736
4.9843
0.9072
0.0796
3.8574
2.2032
2.7785
2.742
1.3519
1.1879
1.0298
0.8683
1.2515
1.4257
0.9572
0.821
1.1855
0.9852
1.6224
1.5746
2.8013
1.2064
2.8357
2.476
1.5596
1.6397
1.1453
1.0433
1.2974
0.7484
2.7566
1.1725
1.5574
1.204
1.1376
0.5273
1.4677
1.3607
1.1294
1.1462
1.1124
1.1475
2.8765
1.5194
2.5195
0.9219
2.6932
1.1317
0.9062
2.6122
4.4178
0.491
2.0868
1.7079
0.8812
2.1092
2.7167
1.4215
0.6742
3.2005
1.0495
0.9885
0.8763
1.5414
1.5516
2.2895
1.1271
2.7516
1.7792
2.0183
2.37
2.4958
0.3612
1.1551
2.7978
1.0227
1.2178
0.9817
1.2612
4.6187
0.5892
0.4739
1.3576
1.3487
1.6456
1.3579
1.4427
0.9271
2.9499
0.9353
0.4686
0.7935
2.9344
2.6129
2.3617
0.8961
1.7233
1.1221
2.7418
2.1674
0.8887
1.7182
0.8997
1.3308
2.9852
1.1553
0.6466
4.0315
0.5363
1.5957
1.9137
4.1478
0.8959
1.5342
2.1069
1.627
1.3349
0.6202
2.1675
4.1577
1.2269
1.0684
2.4473
0.8922
1.1376
1.2923
2.226
0.4822
1.5376
2.4634
0.852
1.0382
1.328
3.4135
1.6252
1.3099
2.6316
1.009
0.9673
4.1309
1.835
1.1671
1.2422
0.8498
1.1416
2.1412
1.0746
2.8649
1.1314
2.557
1.4943
1.4969
0.4954
1.564
1.8159
0.992
1.0275
1.1519
0.7747
1.7174
1.9004
1.614
0.4923
0.9208
1.0021
4.1266
1.2694
1.1873
1.1904
1.6199
1.4388
1.1371
1.517
1.2971
1.5287
1.8306
1.68
0.715
1.1724
2.7787
0.6398
1.3637
1.3928
2.2226
2.5897
1.3495
1.8199
1.201
0.71
0.6556
1.0294
1.3547
4.4791
2.268
1.3817
0.354
2.4559
1.3718
1.7002
3.5856
1.3196
1.0743
0.5028
0.6455
2.7066
3.2322
1.2119
2.3721
1.4775
0.8806
2.9169
2.2545
1.2559
1.2634
1.253
0.687
0.151
1.5315
2.541
2.7483
1.8054
1.3576
2.2495
1.1087
1.1338
1.7333
0.5259
2.7624
0.7704
0.973
2.8806
1.2887
1.2015
2.557
1.5098
1.0425
3.9737
1.5862
0.1454
0.759
0.8936
1.6171
1.266
0.7326
0.7044
1.6301
0.7057
0.941
1.0302
4.4555
0.995
3.6451
1.451
1.4416
1.8602
2.7118
2.2312
3.1273
1.0288
2.9026
1.8188
1.2345
1.1837
1.3061
4.4225
1.6217
4.1501
4.245
0.9823
0.9802
3.8511
1.0087
0.7939
4.6167
4.5106
1.1559
1.295
0.841
1.1818
1.6831
1.6668
1.8703
1.5658
1.3318
1.5416
2.2534
1.5072
4.632
1.175
1.22
1.0872
1.1624
1.2696
2.718
0.847
0.9137
2.8384
1.3515
0.8782
4.1707
1.9411
0.3261
0.1484
0.333
3.3584
2.2868
2.5244
4.4718
1.4001
1.0919
4.8458
2.883
2.4202
0.7792
1.2625
1.5453
1.9532
1.3306
1.0469
1.7398
1.672
2.8793
0.7025
1.0676
1.1194
1.5191
0.436
1.036
1.2076
1.1049
1.8968
1.6261
1.6249
1.006
1.2737
3.8495
0.8504
1.6305
1.5499
0.8114
1.2458
2.1423
1.4223
0.8021
1.247
3.2059
0.7532
2.7451
2.6179
0.7206
0.9026
2.7735
1.1132
1.7995
1.4041
0.7809
1.568
4.6763
1.317
2.8178
2.7168
1.7236
1.6647
0.5751
0.5364
1.1206
2.8952
1.7057
1.0535
1.1098
1.0767
1.1665
1.2672
2.4807
1.0755
1.3627
0.6771
1.9868
2.1126
2.8855
1.7773
0.8265
0.951
0.2412
1.2204
1.2331
1.318
0.5102
4.2161
1.3418
1.4075
2.4488
2.0642
1.1059
1.2629
4.0806
2.4534
1.4792
0.5261
1.5063
1.2529
2.5735
0.7004
1.2179
1.4743
1.2704
1.1736
1.099
1.0168
0.7279
1.4656
1.2993
1.4938
1.0097
1.1292
0.7063
2.1187
1.2396
1.9467
1.3451
2.4379
2.1579
1.2107
1.4439
0.9197
1.6891
1.7271
2.95
2.0484
0.7527
1.4771
2.3798
0.769
4.2165
1.3025
1.1573
0.66
2.6524
1.1934
2.3048
3.1125
3.2538
1.2556
2.9514
1.8197
1.1984
4.7186
1.2081
1.1536
1.4852
2.1649
2.7412
1.26
1.7651
1.3952
5.0016
0.7763
0.7815
3.8645
1.5778
1.3447
4.1173
1.3478
1.6457
1.0714
2.8808
4.0417
0.5646
1.2085
2.0974
2.5246
4.2978
0.8565
1.4475
1.1031
2.8343
2.6253
4.1421
2.3637
1.2148
1.2677
2.7507
1.312
0.6553
1.625
1.3699
1.2258
2.7471
2.8092
5.0959
3.9857
0.9792
0.7539
0.4144
4.4208
2.0434
1.0845
1.7233
2.5449
1.6999
1.3463
1.2184
2.4527
1.2392
1.5684
0.9214
1.1733
1.2916
1.5528
1.2514
1.0949
1.3194
3.0118
1.3932
2.6174
1.2315
0.7754
4.5612
0.6657
1.0285
1.1341
1.0276
0.7932
0.9299
0.6438
3.1503
2.4608
0.945
2.0407
0.5468
1.4416
1.2223
0.7991
4.2854
1.9459
1.4379
1.3792
0.6985
0.8621
0.575
1.2364
1.2186
0.8645
4.6206
3.6739
3.9087
1.2503
0.7198
1.075
3.9386
1.311
0.639
0.3506
2.2424
1.5778
1.5436
0.818
4.2008
1.2078
2.1759
0.9334
1.115
0.283
1.2483
5.5345
2.7888
1.2925
2.8652
1.381
1.5672
0.3822
1.0357
2.2994
1.9986
1.1396
1.5919
0.9499
1.3384
4.7856
4.1152
1.6476
1.6005
1.3252
0.688
0.3755
0.9004
1.0111
1.0908
4.4927
0.8833
1.461
3.175
4.1507
1.2821
1.8651
1.5176
0.896
3.2068
1.2724
0.9399
0.5189
0.888
1.2539
3.7852
0.8352
1.7514
1.2793
2.1426
1.4807
3.3456
1.9871
1.2539
1.2007
2.1673
1.6265
1.1776
1.5515
0.4077
1.1959
0.9231
1.2438
1.9767
1.4681
1.3835
1.642
4.0292
1.4853
1.9821
1.0691
0.6286
2.831
1.0328
3.7652
0.8316
0.5745
0.7606
1.3506
1.3667
2.371
2.1382
2.6575
1.3229
4.4533
0.8918
1.5767
0.5284
0.7171
2.3918
4.3168
0.6533
3.6888
1.8059
1.7399
2.1907
0.8577
2.6043
2.8162
1.0018
2.4367
1.6783
0.8933
2.5252
0.1761
2.7819
1.4132
1.3671
1.3412
1.2847
1.0912
1.5758
2.8143
0.9419
2.5323
2.2258
4.0129
0.7293
1.5887
3.4545
0.6988
1.1163
1.0492
3.3112
0.9094
3.2247
1.2533
2.5698
0.7347
1.5237
2.4565
0.8852
1.4772
1.1196
0.7883
1.5139
1.2384
1.5193
1.1401
3.4896
0.5152
3.4356
0.9436
0.5344
1.2776
3.0018
2.7575
3.4452
2.0786
0.5649
0.9073
0.6195
2.5303
1.9999
4.1239
1.3394
1.6745
1.2699
1.7752
1.2707
2.2184
1.0302
0.8871
1.2106
0.3019
1.7286
1.4582
2.6104
2.2686
1.9555
1.4145
1.1917
1.0702
1.039
0.8743
0.8769
2.5911
1.6382
1.1454
0.6017
4.0713
0.765
1.8512
1.9466
1.1862
0.7275
1.0697
4.2085
1.5464
0.9974
1.167
3.0672
3.0462
3.0451
2.1163
0.7915
2.1256
1.0447
1.8344
1.5266
0.9757
2.0071
5.1516
3.0821
0.6591
4.0276
1.4633
0.5947
1.1345
1.6385
2.5786
4.3046
3.3128
2.9441
1.3647
2.5761
3.1196
1.2266
1.18
4.8804
1.3819
3.7466
2.307
0.8854
2.9615
1.5719
1.2626
0.7918
2.5005
1.7647
1.1205
1.1033
0.9158
4.693
0.8569
1.5058
2.4583
1.4168
1.3037
1.1587
1.0481
2.7457
1.299
0.9353
1.6931
1.5824
3.8083
0.8445
0.4293
2.892
1.066
1.1903
3.8404
1.1912
1.3235
2.1923
1.3138
2.7011
1.7927
1.3402
2.3077
0.8202
1.2853
1.0534
1.4999
0.6248
2.9078
2.6853
3.1032
1.1463
0.8038
0.7653
2.7397
0.687
2.1203
1.1297
1.8588
0.5155
0.1903
0.8885
1.3679
2.6653
0.9471
1.3615
1.0909
0.6984
1.9349
0.1674
1.3053
1.2181
1.2291
1.6506
0.7544
2.2661
1.6519
1.4567
1.8294
1.111
1.0976
4.6517
1.7557
2.2415
2.0891
1.0055
1.3012
4.4929
1.6639
2.8808
1.2388
1.5162
1.0496
2.4491
1.2246
1.7294
2.8168
1.0155
1.1711
1.6241
2.7253
1.2678
1.2775
0.723
3.4466
3.0044
4.2527
1.2891
1.0288
3.1288
0.9927
1.0872
1.669
1.8086
2.4784
1.2956
0.6461
0.8351
2.1515
1.2422
1.2698
1.2954
1.1016
2.5704
0.931
1.0473
3.6664
1.3605
2.8978
1.1377
1.1255
4.2761
1.8242
2.6081
1.2079
3.481
2.5604
1.3493
1.331
1.0562
1.3776
0.6116
1.1243
2.3376
2.7775
0.5525
1.4794
0.1396
4.3987
3.7683
0.9489
1.1036
3.1465
0.7576
1.1881
3.0303
1.2069
1.4245
1.6432
0.9397
0.986
2.2791
1.7179
1.9377
0.6425
2.7177
2.4302
0.9672
1.4489
1.2225
1.4068
3.1952
1.3336
1.4648
1.6253
0.9046
1.5071
0.9571
2.223
1.3708
0.7196
3.6279
2.6499
1.1268
1.7834
0.7173
1.3364
0.8644
3.5489
0.3719
0.7313
3.7188
0.3857
1.5668
1.684
0.8876
1.0165
1.097
1.6243
1.6339
4.3655
1.314
3.9997
0.3767
2.5372
1.7143
3.9383
1.044
1.5251
4.0474
1.0966
2.8923
0.3717
0.7054
5.0604
1.5321
1.592
1.3172
2.7634
2.4239
3.3306
2.5354
1.6062
4.0176
0.9233
1.1855
1.3203
1.7447
5.5062
3.8076
2.8475
2.6551
0.4494
3.1386
1.0324
4.0279
3.1385
1.1722
3.0157
2.5491
2.7966
1.1442
2.3634
1.4274
1.526
2.6305
0.3779
0.7184
0.9775
1.8097
1.1775
3.0996
1.6332
1.0072
2.6963
1.5378
3.8916
1.5022
4.4899
0.8572
1.4038
4.1847
0.634
0.9776
0.9631
1.8969
0.7249
0.9226
4.4017
2.6476
1.1162
2.5585
1.597
0.8656
2.2791
0.3674
0.9989
0.6548
1.0671
0.4704
1.061
1.3276
1.181
2.8353
3.0031
4.3524
1.1912
2.7674
1.3311
1.5419
2.6446
2.2296
4.708
2.0764
1.5022
2.7597
1.3776
1.2306
2.1821
2.4011
1.153
1.7204
1.3916
1.3963
1.7327
1.7895
1.523
3.2912
1.3886
1.5214
4.6711
1.7643
0.8235
0.6577
0.7119
1.0014
1.6347
3.6593
2.5515
2.5957
2.2063
0.6976
0.9884
0.8885
4.5798
2.2048
2.2692
1.3296
2.5557
4.0934
1.6287
2.5379
1.215
4.0111
2.5966
1.5472
1.0389
1.2784
1.0444
0.3545
0.8996
0.9813
1.2113
2.8261
1.1197
2.498
1.3095
1.1916
0.653
3.1021
2.5205
2.6234
0.5765
1.6571
1.005
1.8568
1.1711
1.4237
1.0414
0.6801
1.3613
1.3567
0.2782
0.6432
1.6465
1.0077
1.4777
2.0795
4.4237
1.1779
2.3917
1.311
1.3593
1.2217
2.861
0.7145
1.2295
1.1798
0.9528
1.3489
3.6795
0.8707
3.5699
2.5128
1.1101
1.3711
1.4165
0.8588
3.14
1.3448
3.253
1.7539
0.9629
2.2204
2.1486
0.318
1.285
0.931
1.4428
0.9512
0.854
1.4152
2.1262
1.7422
1.4227
3.0147
1.3754
0.2795
1.5029
1.4077
1.5921
0.9282
1.6627
0.7088
1.2534
1.1862
1.8134
0.9727
4.4423
0.9833
3.1033
1.2869
1.0829
1.6653
1.0184
2.2708
1.4355
0.6702
0.9908
2.638
1.078
3.6539
1.38
1.1464
3.9556
1.3412
0.3902
3.0095
0.5304
1.3298
2.5692
1.5261
2.642
2.7824
5.1065
4.5897
1.0755
2.3107
1.1233
0.7974
2.6707
1.2532
0.6011
1.2404
1.86
1.2251
2.4981
4.5514
1.1322
1.1647
1.6653
2.3352
4.6337
0.5823
2.0926
0.8339
2.6564
1.7769
0.5915
0.9845
1.5457
0.4536
2.7906
1.3391
0.4076
0.3565
3.2997
4.3548
0.8898
0.5555
1.6162
3.111
1.7836
1.2359
0.3705
0.5405
0.7101
0.9133
1.7697
1.3517
1.2109
1.2567
2.9339
1.5585
1.2054
1.6825
0.9919
1.5306
1.669
4.6354
0.7779
1.1042
0.4337
0.6405
1.0775
2.6515
1.3499
0.6329
1.1345
4.6594
2.7077
1.4267
1.2278
0.8794
3.7517
1.1038
4.5257
2.3299
0.9797
4.2333
1.9079
1.3297
1.3166
1.0415
1.9279
2.6609
2.9635
2.5014
2.2761
1.1488
2.4281
1.2507
4.0458
1.6448
1.0659
1.0933
0.4645
0.2964
1.3722
0.9877
1.4538
2.74
1.2298
0.1615
2.5489
0.8429
0.8097
0.4616
2.143
1.185
4.9772
2.1354
0.8287
1.5716
3.0717
0.9276
1.503
3.0099
2.1386
1.3915
0.7517
4.4513
1.1991
0.4914
0.8968
0.8485
1.6666
2.5988
0.8142
1.4595
1.0753
2.6966
1.1259
2.1155
1.2812
2.8738
1.6644
1.1645
1.776
1.5761
0.3403
0.8761
2.6074
2.645
0.9374
1.3779
1.0637
1.1826
1.0463
1.1
3.7807
2.7392
2.814
3.6349
2.4322
1.2127
4.9527
0.768
1.0608
0.9921
2.7192
0.7638
0.9226
2.0998
0.3813
1.1636
1.186
4.026
1.657
2.689
5.0045
0.484
1.3758
4.3422
1.4162
2.9542
4.8515
5.1028
0.6799
1.3845
1.6856
1.157
0.7998
2.3231
1.9209
2.3984
1.3455
2.4154
2.6367
0.5719
0.5706
1.4609
0.123
1.8209
1.3502
0.6429
1.3244
1.0046
2.3081
1.7093
1.4213
0.9389
3.8754
1.965
1.3618
4.2484
0.8592
0.8517
3.3372
1.4838
1.1774
0.6103
0.979
4.3978
3.009
4.2807
1.6776
1.2522
1.6356
2.543
2.9714
2.4736
1.5064
1.2879
0.2706
0.8843
0.5356
3.4876
1.4182
0.9799
0.602
1.2335
1.4112
0.9754
1.3141
1.7137
0.8183
0.957
0.517
1.7367
0.1151
1.0366
1.9123
0.2055
1.3382
2.8251
1.4189
1.5689
1.2888
1.2634
0.5409
1.1487
1.2743
2.3923
2.3478
4.4539
1.5222
0.8659
1.0975
1.3474
0.9036
2.6238
1.3016
3.2586
4.1286
3.4564
0.5619
3.9154
1.0479
1.6836
2.1421
2.572
1.4215
3.1002
1.5047
4.0799
1.1516
1.1952
1.8348
1.6403
4.6644
1.3881
2.7014
1.1296
3.6955
1.4937
0.9685
2.9127
1.9945
2.2885
1.6243
1.8371
2.9097
0.8184
1.662
0.8459
2.9954
0.731
1.0172
0.1422
0.7591
1.4893
3.2962
4.7556
2.8959
2.1341
1.0238
4.9931
1.2217
0.6789
1.0218
0.3182
1.5892
0.3706
2.1649
1.2017
2.2129
2.6905
1.5627
0.9721
3.0833
2.8745
4.4746
4.8239
1.2852
1.0492
2.7636
0.6891
1.608
2.9495
2.5558
0.9441
1.2973
0.629
1.0398
4.7961
3.7723
3.1015
1.3935
1.4506
0.9504
0.8233
2.5397
5.0151
3.9435
0.2557
4.2834
1.7045
1.302
1.9802
4.5296
1.3077
1.079
1.4257
0.548
1.9458
4.614
1.5616
1.1831
1.7887
1.1228
2.4553
2.6499
1.5803
0.9049
0.8371
0.8222
1.0053
2.9636
1.2796
0.7053
2.2196
0.6471
1.0084
0.8066
0.9156
1.2303
1.1095
0.8678
1.3381
1.4033
1.4824
1.2372
2.7741
1.4712
0.923
2.0772
1.9262
1.5732
1.0522
0.3916
2.0613
2.5392
1.9302
1.127
0.8013
2.3371
4.9878
1.0926
1.8867
2.301
2.3527
2.4701
1.4152
4.5683
0.8922
0.9404
2.1492
0.5724
0.8099
1.8356
2.3207
1.2392
4.0673
0.7754
2.8332
2.4366
1.5974
2.952
3.9867
4.5805
1.5303
2.53
2.4875
1.3396
5.1102
1.7
1.2289
0.3909
1.1841
0.386
3.5183
0.8598
2.6613
0.9063
1.7474
1.1873
0.9234
1.4952
0.8778
2.6695
0.1993
0.8713
1.7146
1.3919
1.2977
1.4619
4.7769
1.1784
2.4497
1.5278
2.5575
0.9607
4.0764
1.3895
3.4301
1.3975
0.7227
0.9042
0.6274
1.4803
1.2993
3.7282
1.5518
0.53
1.0294
0.6052
2.5658
0.9611
2.2265
1.1928
0.7509
0.2815
0.517
1.0225
4.1016
0.8409
1.8081
1.3311
1.3648
3.8097
0.7531
1.2694
1.0715
1.3088
1.0661
2.8641
2.6276
1.1184
1.4002
4.9426
1.4717
0.6569
1.1062
1.1198
1.3203
2.4892
1.1843
4.2486
1.2971
0.6548
3.708
0.2379
3.2758
0.3562
1.2129
1.4715
0.7723
1.6978
1.2004
1.8925
2.3227
4.136
0.9816
0.9257
0.9487
2.5118
1.018
2.8825
1.4851
2.1214
0.9482
2.7409
2.7093
1.089
2.6164
1.0286
1.5631
4.5589
4.0834
1.1621
1.0624
1.1268
1.632
1.0179
0.9292
1.1592
2.0583
2.5192
0.8707
1.4505
1.4991
1.2366
0.9097
1.5658
0.6877
0.1903
1.0943
3.2621
2.6663
1.0413
1.3649
1.3644
2.127
3.007
0.8439
1.38
1.1588
2.6365
1.1435
1.1366
3.5507
0.9991
1.147
1.3239
1.2114
2.6262
1.4167
1.7674
1.0919
0.8384
2.9118
1.3754
1.0609
0.2812
2.9221
0.8259
2.548
4.069
1.5962
2.7034
0.7117
2.172
1.3997
2.3989
3.0444
1.1763
1.1181
1.1428
1.172
4.1868
1.1229
2.4462
3.8885
1.2417
0.8832
1.3082
3.0259
1.1704
1.2603
1.5975
2.5424
0.9427
1.8462
1.2234
3.9635
1.0597
0.3395
4.081
0.7269
0.6565
0.774
2.2625
1.5199
1.6224
1.2306
3.1622
2.5033
1.7558
0.8227
2.5894
0.7815
2.6218
1.4281
0.7746
3.0811
3.2872
1.94
0.4375
3.9847
1.2822
0.6092
0.6436
2.0126
1.1863
1.3103
4.6524
2.7667
2.8209
0.4943
1.2664
2.5801
0.8997
1.0164
1.3129
1.4703
1.9709
4.3745
1.5157
1.5
1.6278
0.7241
2.6282
0.7958
0.8201
1.3499
2.7526
1.3326
0.9384
2.6377
1.0578
4.3689
1.6139
0.776
1.1652
1.5154
0.5263
1.5565
0.3226
0.7227
1.1454
1.0463
0.9988
1.9255
2.2199
1.3665
3.2128
1.5286
1.3164
1.2639
0.9943
0.9655
0.6041
1.5861
2.1916
1.1364
2.5009
4.276
1.4242
2.4597
0.7208
2.3824
0.789
1.9593
1.7089
0.5933
1.0399
0.7728
0.8916
0.9419
0.8133
1.5439
2.7106
1.2694
1.7614
2.8739
1.1741
1.2785
1.5844
1.554
0.2593
4.3878
1.2082
2.8233
3.4225
2.962
1.473
1.0171
4.9483
0.7161
1.2526
0.9355
0.8507
1.1323
2.376
2.0546
4.518
2.2298
2.241
4.8135
1.5977
0.551
2.2223
4.2772
1.4462
1.6368
2.5885
1.1924
2.1572
1.7578
1.6074
1.3799
1.1624
1.7524
0.6961
1.2771
1.974
0.6898
2.0984
1.5735
1.463
1.7398
1.6448
0.5483
0.5356
0.9513
2.722
2.9999
1.0753
3.8654
1.5449
4.0813
1.3442
1.1861
0.8757
0.8941
0.6903
1.6945
1.0088
3.8729
0.4311
0.3625
0.7147
2.7377
1.2029
4.0704
0.7172
0.398
0.8664
1.0547
1.4837
0.5603
1.0215
0.701
0.9388
3.308
0.7865
2.2498
3.5586
1.4268
1.3939
0.8048
2.0565
0.5842
1.6398
1.7042
1.8093
1.8676
1.0725
1.3066
4.2338
0.7469
2.5097
3.025
0.6075
2.8892
1.5535
2.6474
1.5793
2.2846
0.6932
2.4759
2.7255
2.015
1.2204
1.0076
3.0104
0.633
2.1296
2.0255
3.868
1.821
1.7577
1.6006
3.0088
2.1195
2.995
0.2934
1.3369
1.2397
0.9524
1.057
2.5863
1.0674
3.0544
1.0708
2.3641
0.9056
1.0103
1.1097
0.8506
2.5577
2.4276
1.5344
0.9966
0.7989
1.0421
4.2036
2.5402
3.5589
4.4497
0.6749
1.4781
1.3225
1.4249
1.475
1.7982
1.1381
1.1792
2.3927
2.702
0.8565
0.7663
1.9731
1.1695
1.4156
0.9523
2.0808
4.1275
3.1537
4.4565
2.655
1.343
1.1656
1.9449
2.5812
1.3122
0.4146
0.952
1.5348
2.9216
5.327
4.6944
1.605
2.752
1.7298
1.2723
1.2301
2.6628
1.7189
1.2369
1.4075
0.9865
2.0398
1.077
1.2193
1.6007
4.8563
1.2555
1.5339
0.8666
2.7266
1.5278
1.8619
2.2263
0.8001
0.5347
2.4123
0.7274
1.5952
2.7224
0.7764
1.7316
1.2395
1.5893
2.7338
2.7091
1.2875
0.9934
3.0312
3.4204
1.2154
2.3896
0.5907
1.2565
1.2671
3.8894
2.1323
4.7675
1.4139
1.5256
1.1111
2.6559
2.7263
1.3329
1.6296
1.4505
1.5474
4.1156
1.2126
2.6518
1.0142
0.4584
0.3651
0.7277
2.308
0.908
1.2297
1.6984
0.5745
1.0454
1.4516
1.5225
1.3768
1.1728
1.4373
0.6247
4.4668
1.5633
4.4866
2.5697
1.1246
0.6921
1.1599
4.3739
2.781
1.272
2.9142
0.9019
2.7997
1.6334
0.9715
3.1711
1.124
1.1595
0.8176
4.0081
0.5195
1.0743
3.2137
4.282
0.6231
1.1617
2.7489
4.1772
0.6719
1.1549
2.6975
1.5295
1.6265
1.4109
1.5325
0.8414
1.4651
2.948
0.6695
2.8719
1.6814
1.4583
2.4774
4.5813
1.4475
2.5215
5.3669
0.5594
1.363
0.3731
1.3134
1.0683
2.9457
2.5894
1.4688
1.1262
2.785
1.7386
1.3162
0.9724
1.0781
3.3946
1.5595
2.4847
1.2805
0.3364
1.1759
3.028
1.3236
2.3104
1.011
1.2995
1.2231
1.5655
1.2061
4.0041
1.2658
4.3667
1.4988
4.3686
3.1721
3.3571
1.0284
1.6116
1.5043
0.4271
1.7885
2.3877
0.8709
2.7226
1.4795
1.4661
1.2593
1.2235
2.6439
1.2311
1.3623
1.6276
4.601
2.9374
1.4257
1.5017
1.3163
1.5096
4.3986
0.4345
0.6575
2.6652
0.7245
1.2996
1.4494
1.4845
1.2355
1.4534
2.9501
2.984
1.6241
1.3655
0.9317
0.6459
1.2353
1.1969
1.6149
0.9923
1.3813
0.4335
1.2048
2.6405
2.4586
0.5077
3.9786
1.904
0.9546
2.1058
1.0177
2.1796
3.9896
0.9784
0.705
1.1398
0.8082
1.2322
0.9503
1.8864
1.9487
2.4316
1.4184
1.4896
1.2995
0.9854
1.3338
1.6249
4.5895
1.2301
2.6972
0.7422
1.2717
0.8463
1.5257
1.5142
1.7874
2.4707
3.3675
1.3551
1.4568
2.8059
0.578
2.0016
1.5474
1.5351
1.5535
1.0996
0.3926
1.4293
1.232
1.6912
1.3871
0.1144
0.9619
0.6493
0.9314
1.6483
1.5259
0.8008
0.9475
2.8684
1.6048
2.7221
1.0262
1.86
4.5114
0.5088
2.6005
2.0828
1.5595
1.2981
1.2019
2.4657
1.567
0.9046
0.7154
2.7566
0.8544
3.943
1.6217
1.479
0.8881
2.024
1.3086
1.0511
0.9965
0.8974
1.4838
0.947
1.2105
1.1931
0.9254
0.938
3.7177
2.9284
1.4246
1.1903
0.8689
1.5028
1.4505
1.7562
1.5268
2.3632
2.4829
3.0836
0.7617
2.7701
1.5199
1.5068
0.7765
1.1888
0.7742
1.0096
4.2568
1.551
1.4878
1.2875
1.1735
4.3331
1.3603
2.5646
0.1291
0.9899
1.2252
1.5144
2.492
0.9693
0.3427
1.2603
2.6776
0.6882
1.4821
1.2174
3.7651
1.0608
1.1741
0.8818
1.7319
0.9463
0.5244
3.7255
1.3407
1.4879
1.3375
1.4696
2.4883
0.4166
1.7104
2.0783
1.3601
4.1394
1.226
2.053
0.8946
1.1287
1.5164
1.2301
0.5299
3.1892
1.9282
2.7705
3.3699
1.2578
1.3275
0.2512
1.1928
1.2807
1.6924
1.1919
1.0987
0.8272
2.3814
0.6546
1.2485
1.3584
1.3006
1.0195
1.2714
1.3003
2.6389
1.2688
1.2038
1.9455
0.8216
1.691
0.3436
1.5673
0.9293
1.4949
0.8271
1.4443
2.4003
1.6705
1.0345
1.2024
3.0843
0.8551
4.8083
0.904
0.7299
0.4006
2.8116
2.6737
2.1132
0.9989
1.3549
1.4353
0.9156
2.0962
4.2094
2.1967
0.2956
1.3321
2.331
3.0611
1.3676
2.126
1.071
2.6781
4.2214
1.5678
2.6359
0.7406
1.0598
1.2202
1.2757
0.7858
1.2936
0.8933
1.5143
1.6178
1.3917
1.534
1.4225
1.0837
3.7959
1.3104
1.3262
1.366
1.0176
3.1036
1.469
1.3728
0.6359
0.6661
1.5536
1.2961
1.4114
2.8614
1.2567
0.7132
0.6863
1.3591
1.978
0.9082
0.8785
3.4831
1.0229
4.6732
2.433
1.0405
1.4626
0.4756
1.713
0.8128
1.3837
2.2865
0.6994
1.3449
3.9986
3.0952
0.9719
1.5498
2.8948
4.4623
1.0801
1.269
0.9438
1.0579
1.4245
1.0746
1.3952
4.3424
0.5302
1.6089
2.1524
1.1133
1.4469
1.0485
4.5391
0.5671
1.6349
1.3588
2.877
0.7261
0.8034
1.5011
0.6866
1.4959
3.0923
0.7711
4.8574
1.0539
2.5667
0.4962
1.4045
2.8521
0.8272
2.6039
0.8767
1.895
2.4579
0.8463
1.2567
0.3942
4.6628
0.8087
1.1728
0.4694
1.1645
1.7894
0.3681
1.3531
0.9165
1.7229
2.2925
1.3543
1.2206
1.66
4.587
4.1244
1.1306
1.4847
0.6633
4.1667
0.9653
2.2213
1.2395
1.4866
0.9616
4.4425
1.3836
1.4548
1.4649
1.6857
2.738
1.5627
0.398
1.7721
0.4567
1.9645
0.8802
1.2233
2.3693
3.0065
4.2184
1.1187
1.4012
1.3743
0.9606
1.2776
1.2778
0.6065
1.124
1.7978
1.4513
0.87
1.3945
4.5754
1.9287
1.3448
1.5977
2.9954
0.9036
0.1705
2.3397
2.2113
1.4206
2.2918
2.3662
2.852
1.0628
4.5607
1.5938
2.3008
1.149
1.6204
2.6527
1.9876
1.5204
2.4303
1.6461
1.5785
1.1425
4.6831
2.9257
1.3884
4.4449
1.3953
1.5175
1.3366
0.8529
2.5929
2.3764
1.474
1.3429
1.66
3.7081
1.712
0.2793
0.7947
0.7629
1.2868
0.9742
2.6425
0.7474
4.3356
0.8332
1.316
1.2094
3.6759
3.4938
1.255
1.2971
2.7706
2.0976
1.7487
1.195
1.2756
0.3747
0.5737
1.4308
2.7499
1.0742
1.5143
1.078
1.1467
1.6657
0.578
1.134
1.5889
1.924
3.988
1.4872
1.6704
2.8556
1.6486
2.176
1.335
1.1028
1.3805
1.5366
1.0482
3.9287
0.8105
3.9368
2.7955
0.724
1.4957
1.839
1.3442
1.6108
1.1465
2.8705
0.4321
0.905
1.5884
5.0229
1.4924
0.8033
1.8066
2.5422
1.3208
1.4967
1.4855
1.8479
1.4419
0.7819
1.6525
1.5568
0.4875
4.1023
0.9669
0.7715
1.2684
1.2836
0.9889
2.9771
0.8767
0.9912
2.5529
1.4651
1.6818
3.7827
1.3757
1.4917
1.6449
1.0473
1.1486
2.4996
1.1046
2.4304
2.6529
1.9262
0.8534
2.4715
2.6874
1.5125
1.7637
1.1053
1.6366
1.1317
1.9482
1.157
1.6834
2.4718
0.9384
0.8638
0.839
1.658
1.4935
0.3604
2.2303
0.9866
0.6621
1.7802
1.1405
1.384
1.4598
2.3278
2.3263
0.777
1.3521
0.5901
1.7634
0.7139
2.2181
1.5834
3.0932
1.9417
1.6064
3.2207
1.4705
0.8846
2.801
0.7743
1.1533
1.6466
4.0186
1.3111
1.2163
4.032
1.6159
1.167
2.6674
1.2331
4.4565
0.7553
1.4967
0.5914
0.5873
2.8871
4.614
0.7858
2.1358
1.543
0.7935
0.6297
1.0926
2.0201
4.5416
2.4452
0.929
0.7383
2.6294
1.0589
2.3107
1.0842
0.8439
1.1072
1.6998
3.1803
2.0103
0.4024
3.0889
2.7112
1.8939
1.6366
0.8904
2.6393
0.6978
1.3646
0.8641
1.9302
0.6591
0.8322
1.2353
1.5932
2.6008
3.1082
0.8489
0.9608
1.1124
1.1597
2.7069
1.236
0.6137
4.1239
0.5667
0.673
2.6435
1.5702
2.869
0.5381
1.6643
1.6772
4.1418
2.6371
1.7024
1.9219
2.9102
0.8446
1.3334
1.3416
1.4163
0.6935
1.2102
0.8799
1.4119
0.7311
1.1477
0.9193
2.7439
1.4513
0.8403
1.0249
1.0409
1.4826
2.9026
3.8159
0.6774
0.6137
1.6785
2.8986
1.2249
1.7899
0.9932
1.1067
1.5137
0.7758
2.0638
2.4523
1.3358
2.7677
1.2961
0.7754
1.6425
1.7506
2.6052
2.6116
1.7988
2.0842
1.173
0.7435
1.7331
2.857
1.4801
2.8114
3.1058
1.1429
1.4567
2.1585
2.9002
2.6015
2.7177
1.0307
1.41
2.6765
1.3446
1.531
1.8215
1.3351
0.9643
1.5086
0.3261
1.7411
2.2347
0.8446
1.0095
1.5841
3.5273
2.2496
3.0589
1.1339
2.7297
5.0378
1.1459
1.1218
2.7361
2.9606
1.1509
1.6163
2.6546
0.163
0.7464
1.0142
3.4282
1.3984
0.9123
0.9058
1.0265
0.5511
2.8113
1.7301
1.3313
1.6758
0.4434
1.489
1.4727
2.8257
1.4165
1.3364
2.0395
0.6102
1.9321
2.8707
2.6335
2.7702
0.5428
2.4682
2.778
3.0184
1.1942
3.8801
1.0638
1.0154
2.4858
2.0609
1.8357
2.9154
2.8984
1.3256
1.2477
2.9716
4.4838
1.1449
3.2794
2.9114
1.226
1.207
1.9102
0.8118
0.4993
0.9789
4.4326
0.926
1.0345
1.1783
1.9428
0.6765
2.3279
1.7587
2.5381
0.9533
0.4135
1.3664
0.794
1.2818
1.5495
1.1926
4.8037
1.0962
1.1031
0.5057
3.0838
1.6309
1.1906
3.0839
1.2836
4.0216
1.7504
0.8639
3.6316
3.2155
0.7938
1.502
2.0082
0.9632
1.1592
2.8503
4.5029
1.8961
2.2679
2.9173
1.0198
3.0282
1.3637
0.8074
1.2783
0.5795
1.5436
0.7318
1.3357
1.5591
1.1417
1.2499
1.5874
1.3635
1.1048
3.864
3.0236
4.271
0.9128
2.1532
1.2473
1.1236
0.8571
1.3714
0.8616
4.8771
4.0364
0.584
1.2818
2.9267
0.7557
1.4665
1.5257
1.2419
1.8759
0.8741
2.297
0.974
1.0654
1.0361
0.8363
4.031
2.6216
2.8589
1.2937
2.8644
2.4264
1.17
4.0672
0.6626
0.3625
0.9161
1.4313
1.2764
1.2091
1.7009
0.8576
2.722
1.0359
1.3355
1.56
0.6756
1.4537
1.2934
0.9778
0.3301
1.2057
2.1996
0.5561
0.649
1.2971
2.2012
1.4966
1.2662
2.2936
0.8625
0.5767
1.6039
1.6124
1.6887
0.9452
2.3359
1.2186
1.5453
0.8149
0.7574
1.4833
0.669
1.2968
1.0791
3.9401
1.1257
1.1077
1.3408
1.3673
3.209
1.7387
1.2709
2.8396
1.4386
1.7016
2.9563
1.5882
2.2523
1.4013
0.3638
4.6157
4.0579
1.1826
2.7147
4.5673
1.7513
1.7539
0.5755
1.2049
0.6639
0.8615
1.7711
1.9093
1.3994
1.2881
4.4472
1.7285
1.3979
0.7062
1.1486
2.546
2.3053
1.523
1.723
0.9692
0.6073
2.4372
1.2325
1.2393
1.3843
1.4696
1.739
2.9326
2.9204
2.6274
0.691
1.4031
1.4627
2.9218
0.8186
1.7082
1.3493
0.7228
2.1184
4.2266
2.6839
0.8646
1.2364
4.35
2.9814
1.2043
1.4069
1.7137
1.1766
2.4286
1.4388
1.9432
2.9028
4.7651
2.5046
1.0705
4.5358
4.4333
1.4948
1.3912
4.1772
1.1601
1.1835
1.6086
1.6371
0.4975
1.4668
1.6591
2.6744
0.0736
1.3024
2.5033
1.3251
3.0776
1.3914
1.7989
0.8575
1.6024
1.5086
1.2287
0.4066
1.2062
0.915
0.4948
2.4321
1.4201
1.294
2.6241
0.7454
3.3111
0.8223
2.5461
0.9423
1.0699
4.8959
1.2157
1.6333
0.9015
0.8851
2.1705
1.2416
0.7777
2.068
1.1201
4.1784
1.0871
0.9183
1.6451
1.3401
2.1072
0.52
0.6556
3.7247
1.0395
1.5666
1.2197
0.6363
2.3436
0.4969
2.5777
1.5419
2.0421
0.7833
1.3649
1.9409
3.1956
1.5585
2.8705
1.3289
1.7666
0.8704
1.3776
1.1129
0.9336
2.2485
2.9192
2.0371
0.8095
1.2708
2.7792
0.6743
2.8133
4.8805
2.8753
1.1598
1.2395
1.1306
0.9649
2.2938
1.0264
1.2933
1.8399
1.0949
1.109
0.9453
1.9033
1.1722
4.5595
2.8026
1.5464
1.5485
1.112
0.9904
3.1789
0.9858
1.2303
0.9088
2.8894
1.0816
0.9536
4.2871
4.8372
0.8973
1.5889
0.9235
0.4296
2.6994
0.8292
0.9533
0.7782
1.9621
1.7736
1.291
1.089
0.7683
1.2324
1.6135
1.3268
1.7033
2.0266
1.1237
0.9778
3.2559
2.7835
4.2172
4.8533
0.502
1.1788
2.6111
3.0211
1.7298
1.9449
0.9272
4.5405
2.1565
1.2914
2.4276
4.1553
4.9444
0.9181
0.7309
1.5585
0.3286
1.0218
1.9933
0.6496
3.3651
1.4547
1.2821
0.5891
0.4979
1.0074
1.1921
2.0911
0.3369
0.6925
1.6703
1.6273
1.4725
0.2579
2.8343
1.3287
2.7483
1.2443
4.3559
1.2196
2.1206
1.3333
0.7755
0.6894
1.2989
1.049
1.8329
1.3882
0.8727
1.2986
1.216
1.054
0.8153
1.3116
1.2634
2.4261
1.3674
1.0627
2.6216
0.8668
1.4572
4.8099
0.6019
2.6169
2.7495
0.428
1.1168
2.8283
1.4668
1.1371
0.6996
1.5614
2.9462
1.4211
1.2169
0.6727
1.8209
2.7512
0.8289
0.5312
3.4456
1.298
4.6713
2.9327
0.8474
1.7751
1.831
4.6205
0.5156
1.0113
1.1522
3.2042
2.8884
1.5798
1.3557
1.2096
1.1243
4.3112
0.8333
1.591
2.2807
0.9101
0.4231
0.9051
2.683
1.8297
0.903
2.5531
1.3788
2.524
1.6289
0.4179
4.4751
1.2479
2.3627
1.5327
1.5521
2.3077
1.3511
2.6486
0.4489
1.3248
1.8859
1.7376
0.7863
2.722
1.1048
1.6192
1.4563
2.3066
1.2911
1.0417
0.7445
3.0214
1.3543
2.7991
4.0916
1.1179
3.0225
1.1534
1.1271
1.5885
1.2427
1.4572
4.6498
2.6243
3.9953
0.4288
0.9791
0.7457
1.3494
0.9267
0.7203
2.2023
1.2329
1.3569
0.7101
0.6913
0.7557
4.0771
1.2861
1.0816
0.9114
2.5695
1.3598
4.1172
1.5525
1.6243
4.039
1.5483
1.3723
1.832
0.9045
2.0052
0.4736
0.9428
0.5528
1.9652
1.6187
1.4671
1.7836
1.0261
0.5118
1.2192
3.5768
4.2859
1.9971
1.1983
1.9471
0.6869
1.4465
1.2536
2.5858
1.0682
1.4025
1.6376
2.6291
1.7455
0.4606
1.5847
4.8454
2.2976
3.3317
1.6691
1.1237
1.048
1.0284
4.1515
1.4251
0.9358
2.6205
0.6457
1.5037
1.2723
0.6252
1.5184
0.6038
1.4694
1.2645
1.3646
1.0537
2.0606
1.0534
0.7558
2.8384
2.7157
0.9065
0.9454
1.8851
1.7216
1.2646
1.7875
1.0806
0.1607
2.9375
0.9
0.955
3.9453
1.6276
1.0016
1.8102
2.5286
1.3401
2.9558
0.5823
4.0479
1.6119
0.9827
0.7565
0.7771
2.7986
1.7701
1.4906
0.9486
3.0094
1.0227
0.9202
2.6888
1.7278
2.6395
1.298
0.8083
0.8026
2.0694
0.8008
0.8166
2.7152
1.5153
0.9852
2.1147
1.2338
3.081
1.4061
0.861
2.9532
3.6482
0.8388
1.798
0.989
1.5984
1.1376
4.4399
0.891
2.7596
0.1798
2.6353
0.9226
1.0426
0.638
1.4177
1.689
0.9694
1.2234
2.4634
2.4767
3.4602
1.976
1.6993
2.0333
1.3063
1.4903
2.6837
1.0771
1.7218
2.2753
2.2354
1.1414
1.2014
1.779
1.0327
2.0853
3.1111
1.3105
1.739
1.7598
0.5665
2.8901
4.2926
0.7779
1.1295
3.0964
1.5101
2.4216
1.9134
3.1935
1.4669
1.5085
1.8396
1.4615
2.4272
2.3357
2.0709
1.5292
1.237
0.8471
1.8262
0.5435
2.9062
0.8101
0.784
0.9351
1.3144
1.2323
1.3006
0.7675
1.3505
1.6655
0.0665
1.055
2.4509
1.0669
0.7811
1.1633
2.4217
0.6616
1.3912
3.0453
1.1743
1.533
1.494
3.1488
2.8525
1.2306
1.0589
0.8851
1.1917
1.5906
1.7699
0.8945
0.9631
3.009
1.8912
0.4094
1.1879
1.4814
1.4343
2.0841
1.1891
1.0495
0.6203
4.5579
4.8115
2.6509
1.0584
1.2504
1.5435
3.3208
1.7897
0.9216
1.3282
1.2232
0.9446
1.9593
1.5151
1.6832
0.7769
4.5055
1.2568
1.187
2.0745
2.4036
0.7135
1.0634
1.5398
3.6038
3.0523
0.9541
1.3077
1.426
2.628
2.6526
1.1885
1.3055
1.0867
1.5892
1.2006
1.0452
2.4073
1.1285
1.5066
0.822
4.9279
2.9202
1.3989
1.3506
1.1652
2.5399
0.9173
4.1468
2.5534
4.6433
1.8375
1.4862
2.3338
0.4978
1.1632
0.5722
1.2843
3.3624
0.8974
4.932
0.4989
2.5024
0.7714
0.9699
0.154
1.7355
2.5703
1.9721
2.809
2.1483
0.8575
2.9239
1.3248
1.29
2.7413
1.838
1.8035
1.0217
0.5226
0.9934
1.3289
3.0345
1.1509
2.751
1.4286
2.8429
1.2014
0.3641
0.9425
1.377
1.0618
1.2529
2.7611
1.0379
0.674
2.0466
1.4153
1.3139
2.2383
2.0363
4.7954
0.8947
1.7508
2.7865
1.6655
1.304
0.8451
3.2225
2.5003
2.8968
1.66
0.9123
2.8546
4.4687
1.7518
1.8125
0.7646
1.3326
0.4453
2.5219
3.3513
0.7941
1.0491
1.0702
0.4001
3.42
1.2965
2.8471
2.0971
2.7155
1.2081
0.476
0.7871
0.9907
2.6598
1.2747
0.5608
1.0034
2.6671
2.7316
0.1954
2.2584
1.604
2.1033
1.2621
4.1488
1.2152
2.7476
1.133
1.7596
1.4747
2.7048
1.1243
2.3036
2.8029
1.5017
0.9543
1.7459
1.2061
1.51
2.772
0.8456
2.0159
1.1988
1.0436
1.3926
1.9284
2.2857
1.5292
2.555
4.6429
4.6101
0.5966
1.0806
0.8643
4.7266
1.4106
3.0328
1.5631
2.4529
0.9486
2.7481
3.3894
1.1365
1.3541
2.8945
1.2059
2.1817
1.0674
2.2723
2.9064
0.8584
2.5438
1.3306
2.5714
1.2839
4.2877
3.2832
1.4342
1.1795
0.9856
2.4747
0.3938
1.8258
4.187
1.4735
4.2632
4.4155
0.7719
2.937
0.5803
1.1306
1.3938
1.4292
2.4865
0.5516
1.4372
1.0166
4.4653
1.2158
0.6117
1.5402
0.7749
2.4301
1.7854
2.6411
1.0211
2.2402
0.7394
3.0215
1.2755
0.4448
1.099
1.9846
1.6611
0.7823
1.327
4.2049
4.1881
0.9859
1.2756
2.4102
2.959
1.1576
1.6603
0.9659
0.9615
2.6187
0.9052
1.1495
0.9262
4.403
0.8341
1.5668
4.263
1.0942
2.2552
0.6683
1.9521
1.4135
2.7793
0.937
1.4681
2.6185
1.0797
0.7301
4.4001
2.0033
1.7808
1.5946
2.2822
0.7431
1.4996
1.2687
1.0806
0.9974
0.3677
2.835
1.2508
0.8973
1.9023
0.77
0.7332
1.1203
1.3824
1.766
1.3131
2.8989
4.6495
4.6942
1.314
1.3135
0.9672
1.1678
1.0345
1.3844
1.7169
1.0347
1.5105
2.2527
2.8998
0.8478
2.0341
1.4742
1.564
1.6848
1.0537
4.2228
1.8974
2.4761
1.0004
0.512
1.3035
1.2371
2.0397
1.4632
2.5694
0.9727
1.3097
2.587
2.5644
1.9434
4.6964
0.6373
1.3827
1.529
3.1424
1.29
1.3522
0.7347
0.6813
2.3265
0.6868
1.2471
1.7586
2.5971
1.2315
1.2906
3.0617
3.1384
1.8373
1.4147
0.9247
0.7499
2.1692
1.411
2.6409
1.1169
1.5523
1.2059
2.1
0.6179
1.2616
0.4857
1.5101
2.1822
1.3074
2.4028
0.8568
0.9227
2.5837
0.6926
0.6506
1.4489
0.3542
1.3102
2.014
4.2775
0.862
1.5254
3.0564
1.0792
1.2729
1.6584
4.0735
1.4994
3.8634
2.7366
1.3385
1.3049
1.9506
0.4185
2.7139
2.7018
1.2494
3.0202
0.8253
4.8755
1.2902
0.7292
1.3488
1.3219
0.5954
2.6148
1.6432
1.3381
2.0666
1.1539
3.6153
0.902
2.7089
2.9279
1.0765
1.4158
4.644
1.804
1.7038
1.7026
1.5012
1.7842
0.8594
4.315
2.4459
0.3471
1.2317
4.0589
0.4758
4.4823
2.7332
1.3363
0.8869
0.7393
2.922
1.0797
1.46
2.8088
1.0587
0.9679
2.5745
1.7558
0.4925
1.2789
3.809
1.0104
1.7387
1.2559
4.7185
1.4457
1.5448
2.7876
2.8921
1.4764
1.9988
1.031
0.5136
1.5686
1.0135
1.0776
0.674
1.8129
1.8696
1.1117
4.3338
0.9307
2.1974
0.7105
1.3946
1.2045
1.1832
1.368
3.6879
2.0453
2.8599
2.7635
4.5205
4.2128
3.0453
1.8754
2.36
4.381
1.3767
0.8114
1.1779
3.2703
1.6354
2.6532
2.9953
2.9351
1.5857
0.5944
1.4242
1.0217
1.2944
1.498
3.8882
0.9224
1.4047
0.7461
1.4793
1.8931
1.6299
1.846
4.1466
1.4205
4.692
0.6947
2.3958
1.3729
1.1183
0.6817
2.4667
1.0762
2.8798
4.7894
0.9358
2.5169
1.9978
1.6613
4.0802
0.917
0.812
2.3737
1.7392
0.9789
1.7933
1.3119
4.4627
2.6247
2.7235
0.3507
0.9966
0.8667
0.5361
0.806
1.1414
4.9379
1.3592
1.3845
1.1452
1.6826
2.0619
2.4694
1.7897
1.0834
1.1878
2.1856
4.2735
2.085
1.7674
1.9575
0.8368
0.9896
2.6437
1.9402
0.5532
0.8428
1.0116
3.9177
3.7206
0.8246
1.2641
2.4399
4.7472
1.311
0.349
0.8635
0.7203
0.4801
0.588
1.1421
1.7435
1.0949
1.668
3.959
4.2475
1.6522
2.3433
1.2489
1.9567
1.3474
3.4366
1.2022
1.3169
1.3587
0.6811
1.1695
3.8171
1.2461
0.7008
2.2977
1.3526
1.5214
1.3773
2.7638
1.5819
4.2739
0.8369
3.237
0.9845
0.8842
0.6852
1.5128
3.9743
1.9046
2.485
0.7078
2.566
1.2828
1.0395
4.2126
1.5935
1.6531
1.5188
1.2902
2.5126
1.4354
1.4743
2.1072
1.5798
1.3348
2.9728
1.6928
2.9812
3.5538
1.0244
2.6136
1.4154
2.2639
1.5337
2.5707
1.298
2.539
1.0626
0.5356
2.8892
2.2255
0.35
0.645
0.4383
2.012
1.0177
1.7611
3.9501
1.4283
1.7159
1.26
1.5677
2.8329
4.997
1.7839
1.3286
2.9375
0.833
0.9337
1.5952
1.8065
2.6759
4.9875
2.9141
2.6924
1.9785
1.8785
1.4565
1.8973
0.983
1.1212
2.1103
0.9113
2.327
0.7436
2.1908
1.6811
1.6105
0.9897
2.346
0.8346
0.4583
2.8781
1.0688
0.7149
0.87
1.1923
1.5765
1.0469
1.7891
3.154
1.9092
1.0824
1.2985
3.9641
1.128
1.0176
2.2651
1.258
2.6121
2.8639
4.5573
1.2003
1.4377
2.5757
0.8549
0.7742
0.9175
1.2075
1.5555
0.6399
0.7959
2.112
0.8873
3.1303
0.8908
0.8457
1.8732
0.593
2.6649
0.7233
1.0746
0.5456
4.2031
0.6129
4.7782
1.9302
1.08
2.2165
0.4619
2.2746
1.547
0.8323
0.8778
1.8579
0.6074
4.4378
4.672
1.4453
0.5042
0.8572
1.0245
2.9236
2.941
0.588
1.7385
2.7701
0.2529
0.7288
2.4682
1.5502
2.7253
1.3856
1.0106
2.9448
4.5411
1.3158
4.3384
2.6696
0.9981
0.8361
1.0932
2.2462
4.3635
2.0621
2.8541
2.133
2.9163
2.0557
2.8346
1.7722
0.3243
3.0663
2.6064
2.8668
1.3897
1.1972
1.722
1.4055
0.921
0.9985
1.5196
0.8873
1.8104
2.3387
2.0178
1.3465
1.2042
2.0201
0.8502
1.6438
2.0011
1.0425
2.6306
2.5229
0.6853
2.532
1.5856
0.6684
4.5959
0.471
0.9998
1.2995
1.3698
1.5824
0.4517
2.8891
1.6854
0.9623
2.6477
1.4217
2.5133
0.6628
2.5525
1.4353
0.7475
1.4556
1.8137
1.5905
4.1368
2.2868
4.3953
0.8735
0.7646
0.8616
1.2429
1.4495
1.2434
2.9306
2.022
4.3076
1.4248
4.2892
0.9693
1.3332
0.3893
4.1671
2.6073
1.3098
1.6033
1.3842
1.3087
0.8429
1.6144
1.3776
1.4304
1.2766
2.801
1.3952
1.4002
2.6036
1.2977
1.4242
1.3601
2.2783
0.8889
1.4419
0.7805
1.2351
1.1032
2.9318
2.8473
1.4971
1.0314
1.4997
2.7641
2.3641
0.4413
1.0683
1.5618
0.943
1.4283
1.1676
3.0481
0.9176
1.4921
1.0671
0.9699
1.2903
0.9583
0.9138
1.4318
3.136
1.844
1.4149
4.3391
2.553
2.1384
3.2916
0.914
1.8751
1.01
2.3067
2.0491
2.9606
1.2522
0.5553
2.5111
0.6702
1.589
1.0936
2.0042
1.0989
1.2663
0.6832
1.7068
1.1989
2.7664
1.2172
3.5499
2.8208
1.5442
1.3743
3.0981
2.636
0.5846
1.2003
1.1736
2.7767
0.8087
2.1521
1.231
1.1229
1.434
1.0292
0.864
0.5904
4.3457
1.4845
0.7167
4.9933
1.6905
0.8979
1.0518
3.1935
1.2435
2.8602
2.3722
1.2854
1.1722
0.3449
1.7715
1.5993
0.6958
2.7383
1.0521
1.1559
1.5893
1.8744
2.5758
1.3494
2.8077
4.1566
2.8559
4.6725
2.9297
1.6308
0.3164
0.8623
0.8945
2.5846
1.1043
1.7887
0.4515
1.7375
2.3017
1.0945
0.9853
1.1447
0.6882
1.2219
1.0114
4.4009
1.5489
0.9611
2.2012
2.4396
0.5895
1.6471
2.9044
4.835
2.8817
2.5604
4.2371
0.5113
0.2857
2.9484
2.5041
1.8599
1.0659
1.0782
0.9941
1.5283
2.1862
0.9461
1.8734
2.5948
4.6299
1.234
1.7946
2.711
2.536
1.0976
1.796
0.1547
0.3922
1.2108
2.2445
1.5488
1.9051
1.2665
2.8198
1.5557
1.5031
0.9076
1.3135
4.4801
0.7528
2.7375
2.9437
2.8516
